stamp_i__desc,stamp_f__desc,latency_i__desc,latency_f__desc,minimum_cq__desc,maximum_rms__desc,data_fixed__desc,sq_pm__desc,eeg.af3_4_8Hz__feat,eeg.f7_4_8Hz__feat,eeg.f3_4_8Hz__feat,eeg.fc5_4_8Hz__feat,eeg.t7_4_8Hz__feat,eeg.p7_4_8Hz__feat,eeg.o1_4_8Hz__feat,eeg.o2_4_8Hz__feat,eeg.p8_4_8Hz__feat,eeg.t8_4_8Hz__feat,eeg.fc6_4_8Hz__feat,eeg.f4_4_8Hz__feat,eeg.f8_4_8Hz__feat,eeg.af4_4_8Hz__feat,eeg.af3_8_12Hz__feat,eeg.f7_8_12Hz__feat,eeg.f3_8_12Hz__feat,eeg.fc5_8_12Hz__feat,eeg.t7_8_12Hz__feat,eeg.p7_8_12Hz__feat,eeg.o1_8_12Hz__feat,eeg.o2_8_12Hz__feat,eeg.p8_8_12Hz__feat,eeg.t8_8_12Hz__feat,eeg.fc6_8_12Hz__feat,eeg.f4_8_12Hz__feat,eeg.f8_8_12Hz__feat,eeg.af4_8_12Hz__feat,eeg.af3_12_18Hz__feat,eeg.f7_12_18Hz__feat,eeg.f3_12_18Hz__feat,eeg.fc5_12_18Hz__feat,eeg.t7_12_18Hz__feat,eeg.p7_12_18Hz__feat,eeg.o1_12_18Hz__feat,eeg.o2_12_18Hz__feat,eeg.p8_12_18Hz__feat,eeg.t8_12_18Hz__feat,eeg.fc6_12_18Hz__feat,eeg.f4_12_18Hz__feat,eeg.f8_12_18Hz__feat,eeg.af4_12_18Hz__feat,eeg.af3_18_25Hz__feat,eeg.f7_18_25Hz__feat,eeg.f3_18_25Hz__feat,eeg.fc5_18_25Hz__feat,eeg.t7_18_25Hz__feat,eeg.p7_18_25Hz__feat,eeg.o1_18_25Hz__feat,eeg.o2_18_25Hz__feat,eeg.p8_18_25Hz__feat,eeg.t8_18_25Hz__feat,eeg.fc6_18_25Hz__feat,eeg.f4_18_25Hz__feat,eeg.f8_18_25Hz__feat,eeg.af4_18_25Hz__feat,eeg.af3_25_32Hz__feat,eeg.f7_25_32Hz__feat,eeg.f3_25_32Hz__feat,eeg.fc5_25_32Hz__feat,eeg.t7_25_32Hz__feat,eeg.p7_25_32Hz__feat,eeg.o1_25_32Hz__feat,eeg.o2_25_32Hz__feat,eeg.p8_25_32Hz__feat,eeg.t8_25_32Hz__feat,eeg.fc6_25_32Hz__feat,eeg.f4_25_32Hz__feat,eeg.f8_25_32Hz__feat,eeg.af4_25_32Hz__feat,eeg.af3_32_40Hz__feat,eeg.f7_32_40Hz__feat,eeg.f3_32_40Hz__feat,eeg.fc5_32_40Hz__feat,eeg.t7_32_40Hz__feat,eeg.p7_32_40Hz__feat,eeg.o1_32_40Hz__feat,eeg.o2_32_40Hz__feat,eeg.p8_32_40Hz__feat,eeg.t8_32_40Hz__feat,eeg.fc6_32_40Hz__feat,eeg.f4_32_40Hz__feat,eeg.f8_32_40Hz__feat,eeg.af4_32_40Hz__feat,participant,movement
1740998128.72512,1740998129.720662,0.0,0.995542049407959,4.0,13.70581812443785,0,,-6.715354212481964,-5.366692339073799,-6.518563522627643,-7.717179128193656,-12.510598618991228,-6.9028383333116565,1.0308011435135886,-9.394933978412956,-10.206526055062175,-4.771661750457599,-1.0344953954005578,-0.952500514013066,-3.8491721860353416,1.962108577501493,1.9898541112292096,0.8906204854402369,-1.3146303299720807,2.0810877550513145,-4.969332412351701,-1.0008992909147496,2.490920285229764,-0.9917118091897976,2.987586442970799,4.004485671182692,6.143652619353933,1.1047098909123858,4.689895123148983,2.2290015620430808,-2.828170711509095,-3.8460741808870265,-4.826749322646744,-3.4847123801043,-1.1401510093475584,-5.258435817335938,-8.61875731673402,-3.9091046944527545,-6.273352579433828,-3.3307059137659945,1.6645701183725454,-1.1520384648312356,1.1446652251058065,1.1041874027033824,-6.054774349605546,-7.384358494179375,-6.258493882394491,-4.451438039730239,-6.529636398396551,-8.377674443230758,-5.7548457558157695,-10.889690881092823,-6.421982151749321,-7.328423867951757,-1.196538465331011,-2.2243633316693474,-0.6227197776677688,-2.43044552643632,-9.618682223980755,-8.289306601571276,-5.710960015315206,-6.44361477407233,-6.021411039507055,-12.71246708350411,-7.005262128620818,-6.959336222386519,-5.384530727588304,-9.202101824827905,-1.1055322995201622,-7.566885090907274,-10.194745277424849,-11.812534989492342,-7.092717426169833,-12.199524429544203,-7.717160144958724,-9.9293421399219,-6.678658131388854,-8.017019959755054,-9.012686359602393,-11.374705912757218,-9.353471623387543,-9.530226960150284,1.8221611360407888,-8.488249248516377,-0.0256303083764394,-3.946792764904884,P04,1
1740998128.974982,1740998129.970524,0.2498619556427002,1.2454040050506592,4.0,7.764765166751451,0,,-2.1597111700015983,-1.660670863508278,-10.087055916195515,-7.1455551798464985,-6.578197653393104,-6.087972580061081,-1.3043596768902503,-8.740980006056553,-7.882430827682957,-5.662239028723541,-3.895320029361237,-2.9140247948671587,-6.091982370864285,-2.6451651479706766,0.6496733930040652,2.850470411266256,-3.53465179947222,2.0725836534017352,-0.3666801140503323,0.2067709878602003,3.99613561730995,-0.3730217026579537,-3.341270163161425,1.6916416801693377,4.787440588758331,3.35617516873038,7.807381395849279,6.946368180363493,-5.19445154006276,-5.711979834577431,-4.227366371903519,-6.149859816165785,-3.1233997820326924,-4.867208295028525,-9.167553596810794,-3.3576817556361465,-7.986108106536851,-8.569262899497867,0.4002689670402159,-0.5157684135834788,1.2643541506470912,2.266623065968426,-8.413270718964753,-9.332704049427472,-8.096225350425224,-3.355121978825601,-4.619550347983959,-9.633023344197603,-7.885299853897063,-11.932676597211955,-10.817198242767446,-6.5326898785213565,0.6038864948769594,-5.220694061084089,0.1788751636328862,-1.6524759176792838,-13.297749172657012,-9.52013317652767,-6.525309400588203,-8.474159965139208,-5.071809779599283,-12.93188477412431,-9.96015509393058,-6.87962512091601,-7.359746636152949,-10.75372223327145,-2.8595916097192315,-5.415677584565914,-8.815048541805226,-7.259632923930326,-10.40757528276794,-7.002507206669396,-8.653226245562447,-8.723006962281286,-6.234173076209425,-8.114033150278885,-9.1934735351532,-10.451461960304496,-10.3981634605504,-12.31893393117977,-1.0754720471475274,-7.557943089308665,-3.369346018314735,-5.971430210383081,P04,1
1740998129.224843,1740998130.220385,0.499722957611084,1.495265007019043,4.0,6.9827552766469285,0,,-4.22750480587813,-4.053801456011858,-10.72114182207251,-7.189750524937379,-4.106249167908933,-5.482066760765109,-7.961677706005997,-4.812551225646679,-4.761643619293643,-5.73100335490602,-3.348957313218357,-1.8211029760352249,-2.0987312650564687,-4.888546288083208,-2.633826438075815,-2.9554248845353466,-6.039786475925768,-2.4455141166213283,0.8398991043174184,-0.8219688021010375,2.73424516179825,-1.0218646995664211,-4.566592877477653,-0.2072390243097814,5.005396400586233,3.078805653121066,6.659223469693705,6.536798625679516,-5.663773763029015,-7.198158350359073,-5.9593935803982205,-3.3900616980959697,-5.247769160318077,-7.010886132519793,-4.75773565646016,-11.519644391816096,-9.764964853608507,-8.690178381964444,-0.4736024593499213,-1.731710613824378,1.8873155943769853,0.6169377728499424,-9.311116567014878,-8.259137186221885,-5.72093283270865,-4.564894946021556,-6.146099354038116,-8.959802544786651,-8.714688493278466,-11.179478427549853,-13.042887792141611,-6.607152289118239,1.2487544332397014,-5.226193173818297,-0.5557557667284453,-3.959680961806571,-10.633939819510037,-11.893460787190548,-8.943247763238901,-8.602528054962718,-8.308949594697651,-12.815017016787618,-8.268163692894632,-10.036738414021746,-9.645398832305956,-12.01417052880256,-5.8481622193074125,-8.417688592893521,-5.467489468708381,-7.560460891140225,-16.092158334476824,-6.521973518633261,-12.135234368693007,-9.540757862552148,-4.556754659765341,-10.81001473707057,-10.326190765711443,-6.614192434757254,-8.590671049247602,-13.831648458928932,1.1239493115811068,-8.186222975326015,-1.1230185658316538,-7.64726066455033,P04,1
1740998129.474705,1740998130.470247,0.7495849132537842,1.7451269626617432,4.0,6.768024337846382,0,,-3.5181255814692736,-2.3594480808646816,-7.192683610542004,-5.684320206279445,-7.108782318546753,-8.18963523269694,-10.53243446865843,-6.438812772716684,-0.6410056526102675,-6.052276532563773,-6.711401668444406,-5.413886998553336,-5.39410339872385,-10.110579695326011,0.8448413531411509,-0.1205790500273795,-4.6521444987294505,1.2010740087280976,-4.871157711303126,-1.3480011864273216,-0.1195126400879592,-0.2931779537854176,-0.7612402702862848,-0.7278170469329,1.90920387106478,2.524054088540674,2.9964215168121773,1.9461150492599584,-5.225048082815251,-6.345825125839889,-8.088834818927557,-1.2395990810760489,-3.9571640279160487,-4.193855051060306,-2.5370140980768605,-10.547838172470216,-7.633944001227254,-4.056192635286761,-1.5878607186041211,-0.6140430715940874,0.1210941035677086,0.0789625020238821,-6.526686815163224,-7.764632152615065,-4.690233437297325,-4.700981833298046,-5.210255945920482,-10.359267208665162,-6.556257514919769,-8.711579466781277,-9.392012219781746,-7.329291856531083,-0.0569637663982731,-4.644587639123687,-2.5279522920063653,-2.082161879786085,-11.808971072297936,-9.152515865026512,-7.582332235621049,-7.682402698217698,-7.723010042281743,-9.146317290347609,-8.134685629011038,-8.805635640760737,-12.573223145638536,-10.444916590027834,-4.731919001102583,-5.302245540042483,-4.384534754312947,-3.9651966627151154,-10.28194218690045,-7.583270409047627,-13.435431838008888,-8.081384795808335,-5.779089440996947,-14.432253221734266,-11.005289287812872,-7.262681573491888,-10.422184781071897,-8.307578095629305,1.09701512977007,-7.471105457747857,-3.9203387417306095,-5.0246676657660725,P04,1
1740998129.724566,1740998130.720108,0.999445915222168,1.994987964630127,4.0,6.32693276883717,0,1.0,-6.314205398846424,-4.032681558158821,-5.025355876464524,-7.306463852603996,-8.602100047995606,-6.085312257674168,-4.812817836096418,-9.281754438915314,-3.249806731244145,-7.421670251731502,-8.843403370667831,-6.958702584070588,-8.044706287826704,-10.972636087647665,-3.1554934160876136,0.8108614497565307,-1.9176341297577588,-0.7762347333383147,-7.655285635050917,-6.079976162898854,-1.2275557599972022,1.3796916365991765,-1.4855666436307555,-1.803199431848666,-2.792771531246698,-1.4126680481760214,-1.0047858329136283,-3.59791906369835,-5.68876270169625,-3.440340743649915,-6.306949002698681,-3.229189444022999,-3.3185571524174886,-4.046369436629249,-2.0434355916504403,-6.124977796331411,-5.737869599903311,-3.520141933301081,-1.72688262619365,-4.104641629229784,-1.5608105700390829,-4.360856767911199,-3.8813824970367095,-8.283543830891384,-2.408678467519408,-1.2142589090426816,-3.787005646715423,-8.593479910497779,-7.489374845609315,-7.504987539367844,-5.79560519541205,-2.630012713585306,-0.813086288249284,-3.749768787641576,0.1026594797442913,-1.6457959385645289,-8.87537534133867,-7.412174152830623,-5.843771113919002,-8.640861188045148,-8.100132425765485,-10.357112062885449,-4.61479748445976,-6.192404169946625,-10.201274799900547,-8.67690349419778,-6.31940576933109,-3.892633841733626,-4.977290287726023,-2.799281984612884,-7.191881626842076,-5.214351516481232,-11.5245892113949,-4.05752209993031,-4.371255274104912,-12.455120214177857,-10.99330498548786,-6.586558603840534,-10.285884026765547,-10.165632595902984,-0.6171497353294374,-6.1272415614120215,-3.4092822133334675,-6.657517975881532,P04,1
1740998129.974428,1740998130.96997,1.2493078708648682,2.244849920272827,4.0,6.319771970735975,0,1.0,-9.238402256121804,-5.689254890589742,-4.23250682503931,-12.434820029748924,-8.047140417941666,-8.576350564913898,-3.081901470655485,-18.31711734831661,-12.251111535136513,-11.215490640510923,-7.879728894438357,-4.768777330378303,-3.512069339892063,-5.450221922322493,-4.260911967462254,-2.9866667660434274,-1.6464377957096856,-4.727870475395645,-8.518037477829127,-9.468204808911988,-2.7827647257314814,0.2093204143595587,-4.095511275867938,-3.5497385993192387,-7.090476826336869,-4.508783804888109,1.621286426629784,-5.218706935703798,-5.660625165914217,0.1617634519715541,-6.188947120836152,-5.218467474972109,-2.106966183217432,-2.76198522260523,-2.490584879934918,-4.412070142842691,-3.594410878255692,-4.881416352086946,-1.0209887116442942,-5.061443181454318,-4.968250992866976,-5.673480969406393,-3.402848075122332,-4.473869457965502,-4.390387982669727,-3.276696634852411,-3.701649741545721,-7.653795900496205,-6.584114181398163,-9.404305150170831,-7.651322897182755,-5.089812346532034,2.660380655964389,-2.3897669601083047,-0.8179546198566233,-2.908050558631259,-6.506935076047555,-7.501678068544799,-5.736417159057537,-8.881691052027652,-5.546974852576456,-11.053178834582813,-6.2678826334659,-9.494347867667734,-12.480922115353392,-6.94760835149835,-8.187797547606575,-2.6995046934938607,-4.907721654538601,-2.7301795514110694,-7.001726651403319,-5.3025711001856015,-11.033475249934048,-2.3186506099546853,-4.412463627129691,-11.387926413079756,-8.915955141228828,-10.288526461878272,-7.786980025270033,-6.674858661356211,-0.5652018585189238,-6.2377150541155455,-3.274370568067612,-8.275622824162523,P04,1
1740998130.22429,1740998131.219832,1.4991698265075684,2.494711875915528,4.0,7.0858947138382975,0,1.0,-7.128227071667941,-3.380657105083904,-5.375988341913187,-6.008415847560267,-9.655406665648195,-8.713687772178563,-4.893007146453664,-14.59714832843314,-6.5170647968273325,-12.06236438500616,-11.150640719313312,-5.998259020578609,-6.977901484788712,-4.349672587125602,-2.871348968299335,-3.45043008275592,-7.007406515980033,-3.6608467281294095,-4.916097896157564,-9.23607681596127,-5.40738773815479,-4.046864609445705,-4.177324190385463,-3.766926436162117,-4.714316411203041,-7.830367474936873,3.3803974317393632,-2.227556417254072,-5.910962532580488,1.4081197782801769,-5.396304365164292,-6.750674162273965,2.729545274054733,-0.8010213231659855,-5.538053736542459,-4.701933752105523,-4.039234931610903,-6.620956584354698,0.2434262924990625,-2.899914030712563,-4.978387847602127,-3.63531511423488,-6.066830920020716,-4.672370488611148,-4.452738357008322,-5.874778956502542,-5.132993734676809,-8.95834500957626,-7.40274207137135,-10.170201050805655,-3.253962464401844,-4.488591544646666,2.4029830696603645,-4.5895463647885135,0.9211735781732177,-4.822403831592458,-8.037555256978916,-7.516993373423673,-5.5449888847631215,-9.380347670734482,-8.314539745242051,-9.77142041590156,-11.389159464820851,-10.786772228645358,-14.142232979983302,-8.353384257408308,0.1008160095157722,-5.276986948928486,-4.924886095408861,-6.610663184258153,-9.888731462358727,-8.32782946126153,-11.176849229553213,-5.758052193616006,-4.180823585190795,-14.042121368550966,-9.883017984317704,-10.755118687888777,-5.210350943984251,-5.070695843765739,-0.2105490346355314,-7.8854775984098415,-2.8225788789437107,-7.253792569939506,P04,1
1740998130.474151,1740998131.469693,1.749030828475952,2.744572877883911,4.0,7.249820179440061,0,1.0,-4.895319989522382,-1.0809584064614652,-9.216360662191413,-4.022907165430858,-10.240585925547553,-5.885451818198821,-4.731882290025769,-7.039088801319583,-3.609596391680576,-10.73794585359332,-9.901707670381336,-12.232050623560962,-11.126196241069913,-5.453967433500191,-6.047492524486645,1.983127027639259,-4.727939672184901,-2.0659289643238443,-1.0716495216093396,-2.390235511638739,-7.18614685573399,-5.3920208121633,-2.911272139372155,-3.9741391890764937,-1.8596138134051767,-1.9850323558416625,-0.0030218112883049,-1.489536617539451,-1.3226168290544242,1.4771294620318511,-1.230920095086578,0.5647961515708432,2.6939143732270217,-1.9382886158798256,-8.796856236373273,-4.510962439028488,-3.9087392270965857,-7.894737948503828,0.2993810659605778,-2.28707794601347,-3.786377720369332,-1.21993757099406,-7.164425086707714,-7.63499347772027,-4.750131153293893,-8.725879587169581,-6.587581767097,-11.640115451711628,-12.6506381069166,-8.491827636690955,-2.801589197213858,-5.80577998074445,3.189537543202322,-5.174854909864791,0.3909872023549372,-7.9599424917293184,-7.008102169191936,-5.965119341870707,-8.187644409662374,-8.66573188782179,-9.24010441788734,-9.140215800360115,-11.651876351374511,-10.9468611781295,-12.996548521956528,-9.35386638692952,0.5337882712214532,-9.007895331189328,-4.473127141191426,-9.229172634370151,-8.684068889975581,-5.422794457628907,-8.759393072944123,-9.090142927745353,-7.280312667706123,-13.66396090886202,-9.250134367013722,-10.196164694560082,-6.908318818650326,-7.993503096037102,1.2165950804495271,-6.8555943360027385,-1.972614163915363,-7.786035131289214,P04,1
1740998130.724012,1740998131.719555,1.998891830444336,2.994434833526612,4.0,6.784147646132442,0,1.0,-2.797863678361521,3.779088496624333,-9.290481577479053,-1.401247978455535,-12.522586438229922,-6.426089907584068,-2.1345675309254246,-2.0897354709824456,-0.2877273206648092,-5.946172910740123,-5.631944896051558,-12.978052667336817,-6.148815758534059,-6.694170370831896,-6.572945669215998,2.42747540074714,-2.83154046616516,-0.4479234300422151,-2.2865466971473984,-1.8849687593953832,-2.405093501182876,-2.6753774003196256,1.0798303074864004,-5.603197916378711,-3.698140188717313,0.2954140819583203,-5.722797309846241,0.7058285201740576,-2.612258335138121,-1.8714798196817184,-3.4700338291495525,-1.552399312077988,-4.149878349656798,-5.997185331924067,-6.501369621754639,-5.997565181226109,-6.80129126470989,-8.473457308177377,-1.452557169026203,-5.014992920491416,-2.3245741555436075,-0.6133959280264119,-8.258718170123151,-9.177154194309203,-8.930063485898112,-7.336120045430148,-6.716075672907836,-11.87079510066302,-12.905313154445912,-11.526805468862694,-4.92987163106698,-8.7829243736083,2.8569285042521937,-3.1591175410111383,-0.2884983908548041,-3.6060042417379865,-3.909265094160724,-8.718985952849826,-5.098090558162561,-6.781994956119799,-6.013442873789623,-7.743355162126869,-9.514675570827764,-11.917692541023698,-9.627307611429046,-6.774662636065293,-2.721314108121933,-5.600703569148582,-9.73021302833889,-9.784122807389007,-11.01815511949568,-6.006800107160716,-9.906120995189578,-5.147474500841458,-7.357132490284394,-11.93064809591034,-7.490791680940533,-8.420026251469379,-5.717487043645568,-4.205479682140964,3.0891679541112333,-6.006274469755873,-0.6295952174498943,-6.411701607666237,P04,1
1740998130.973874,1740998131.969416,2.2487540245056152,3.244295835494995,4.0,7.058811990207406,0,1.0,-4.705733766395136,2.3815535524299705,-16.261530629008824,-2.4910680138845214,-9.114907679523707,-7.49464598523776,-3.0135635634762874,-5.316016471875501,-4.027263622923603,-7.916728794580921,-6.630059988512604,-8.273573220682039,-4.618206195769231,-7.724797415219101,-5.6347290206950005,-7.66251311513216,-2.776385712763945,-5.408790615855264,-8.028956892241288,-5.883708453091218,-5.167118932257429,-6.117203732064665,-4.527119866297767,-4.582834425603638,-3.3102099528394424,-3.025238080919572,-1.4067515000337605,-1.0792084694171002,-3.742061373965275,-5.091964225562212,-5.333309524732499,-6.725531623347859,-2.5565741236761093,-5.402479299340715,-6.07437429702976,-6.704887111438834,-2.5927449527127693,-4.918958471581022,-2.251764782963513,-4.275944385962359,-2.23381132219391,-1.491090726965313,-10.288046373828074,-7.038522982064892,-6.644426163072772,-8.23370212714698,-3.6749228246244887,-8.898537398449292,-5.631957806222738,-10.022813312279704,-10.115923394343504,-5.787918272463397,0.957766179460284,-2.7503200830629075,1.060824028092822,-1.4628873367255513,-6.353702414701392,-11.198061216171787,-4.243665753739144,-7.523505920612107,-7.8216111240034545,-8.397634454452888,-8.85406153132007,-10.25398409235988,-7.468812455436947,-4.916831785657481,-1.882068572612707,-3.394214249454002,-3.862310676405005,-6.246834236291536,-10.495726259630544,-8.844998440603273,-7.2870227910552785,-5.214545863776716,-6.262473202150625,-8.982702668030658,-4.751908456345161,-11.394636877270052,-7.518715585110405,-5.694679559523134,-1.5443899502727654,-4.089165574468887,-0.8654184253049442,-3.6482483654988176,P04,1
1740998131.223736,1740998132.219278,2.4986159801483154,3.4941580295562744,4.0,6.254973793401123,0,1.0,-10.964361245883936,-3.4398585898296274,-15.307072594762792,-7.732294830513055,-8.884513861478764,-6.858794367198432,-2.802913408748409,-9.924665976844205,-9.18764786408936,-7.607697247067751,-12.373722310812187,-6.701179779100733,-3.912209070314496,-2.757152267066844,-5.472111544142385,-5.86371127120456,-4.505307906339047,-9.590472930466088,-0.0261639213049272,1.8612396412995609,-1.9535453109330336,-7.819349886229587,-7.462487905108425,-4.064253782845061,2.424767765436294,1.817504233784443,-1.052135994289747,1.7904818771699076,-6.282071478401554,-7.070609271423047,-9.937087595940142,-5.088607905771937,0.5418450448697139,-1.628797896374547,-4.984135302847817,-7.61609720961898,-0.6828061096564959,-6.56724537106572,-0.5746005037574741,1.1098024953366212,-1.0070816425507092,0.4935572500543302,-11.13040551950026,-6.809847324320334,-9.495050226004608,-7.704009998050192,-3.5844479361780195,-5.493738795686691,-3.935858166404984,-6.391784035200278,-8.805644267572081,-4.155184493746482,-0.8969415567542962,-5.671485864714607,0.9334916209279766,-2.3791457398944016,-9.183523763400004,-11.328153460505712,-9.091999520277202,-9.976866044748922,-12.541640689403916,-6.164867537210562,-6.6796489449856,-11.807944330172855,-7.361022904373375,-4.323164583107989,-3.868272258237288,-6.968496629062832,-5.67621394427289,-5.457595567505265,-9.078873033194713,-8.418370832145254,-5.610971534123612,-6.93172485488949,-4.747987708735415,-8.030819746586532,-8.455971477516186,-11.055264290204727,-7.12393214829228,-7.509513536002959,0.6811416563237573,-5.911850861911746,-1.8231454104260203,-3.058063555431417,P04,1
1740998131.473597,1740998132.469139,2.748476982116699,3.744019031524658,4.0,7.908041156589959,0,1.0,-11.769830299810977,-9.51009176415155,-14.816349494129526,-8.508535126629878,-18.27795873834489,-8.796668704912939,-5.809101874083393,-9.431288626418038,-8.003201215978246,-11.97673018906723,-11.04506039852815,-12.638410864487328,-6.503873500933331,-7.954368081824503,-3.9303199269011966,-3.874787445392476,-6.971689681629555,-5.095847208700972,3.030898833710536,3.324349541851173,-0.943529491105465,-7.643229404186782,-2.0288485264046905,-3.3839768434560287,3.814263022593156,5.0809432135214525,-0.0888013691045457,2.006746274860998,-4.242771293051552,-2.753406631277364,-2.539413534296606,-1.1301596667984977,-0.9568498084616384,-3.366265527169942,-2.0247770271877976,-5.547745805834286,0.7177636443361647,-1.6478359447025803,-1.9160249535585403,2.949746065263777,-2.17620670190616,0.3634307236412681,-8.718241270835074,-1.3154391342032845,-7.785027666348273,-4.76295991380343,-4.552611191600724,-3.907478829682689,-2.9022591720782915,-3.632885216897453,-6.09106783382412,-5.383632355411874,1.2584523120003144,-5.84594170080014,-0.1468488269495408,0.4068577960452776,-8.838584460211962,-8.515671177317978,-7.605452418485019,-7.72554188440211,-13.36821879697683,-6.208185267706574,-7.388693809799758,-10.24844116341047,-6.004069210977024,-5.728775854474035,-5.313178064136451,-6.034368379753934,-5.167716480870192,-6.7042098866295134,-4.767979017139189,-8.848419036161193,-5.304630114774631,-7.41137535983269,-3.3682451137237592,-7.718617797185853,-10.64553314912794,-8.256357403851478,-8.68871471774848,-9.70726405612572,1.0817624319838302,-6.012217200391607,-5.967222060021556,-4.7971347107055085,P04,1
1740998131.723459,1740998132.719001,2.9983389377593994,3.9938809871673584,4.0,9.465167504027503,0,1.0,-9.293251088852353,-3.673589909161416,-12.548574968481912,-8.407206132395338,-6.990986242391614,-9.732034584701648,-6.744441183672438,-6.917949508270109,-7.345983319497233,-10.6883530732568,-8.750460177947637,-4.316957159641225,-5.083147814964539,-8.368675630639391,4.255703768144895,7.041212822698029,2.066724502735376,4.957022745308688,7.315893681431129,-0.2395247434696529,-0.7008996022659003,1.8901577445383568,1.871801557534724,1.798911808818609,3.321040922282564,7.48775118420228,0.5651421106703303,8.414827853226205,5.141754338211752,3.966547632154585,8.256635780286086,3.350391128807765,3.438653980573972,-2.578368645164028,-1.4819808306945093,3.689891342642497,4.112377644457325,4.9433865937584445,5.7370897522626185,4.932625222707156,5.395774042317502,1.33041353782579,-4.407495859355837,-0.4400429528444596,-5.849685882180726,-4.718898052132124,-4.574870175920433,-9.30010628029363,-4.467643534470435,-3.148489612360621,-5.032602676701653,-6.330649554761719,1.0430372328697433,-2.1891968519906566,-4.689240326273079,-1.448537000523498,-8.312590297921398,-5.791842497969874,-6.831705738817431,-6.068884945139473,-8.871524366272324,-4.973996289374047,-3.777544410638711,-5.147628395059756,-4.937435351489434,-5.980548962450476,-3.9756689088500585,-6.01839785831195,-4.543786655410762,-1.526643509024161,-6.304692537230787,-7.804866098066331,-6.579162427097525,-5.825550882365825,-1.760545372735573,-7.484604767022449,-9.96329298282754,-10.346503433861722,-12.074425774304649,-9.021503727601852,0.9003022469567518,-3.736675930237332,-5.640093467196559,-5.023485177975533,P04,1
1740998131.97332,1740998132.968863,3.248199939727783,4.243742942810059,4.0,9.740488235922424,0,1.0,-0.8653265667493749,4.46085552399407,-3.2797250836249696,-1.3534272556627776,-3.7594404014693614,-2.7190715691582845,-1.4292410124150012,0.1055785417836297,-0.3401845393574368,-0.7406016573809764,-6.395473267559138,1.6825152879008225,-2.3681977863346675,1.3241796644027624,11.865538273373584,14.029651363934189,8.983238482351801,11.230490058860772,9.327615999783202,2.86892054416964,7.683380487169193,11.276566521664051,9.897133767833068,8.266053683611862,7.0997627447118825,9.900558399604202,1.3382846690638972,9.738275451256218,6.263585574761164,4.08707139354348,8.432818708219886,4.386838895510477,5.69866801697585,1.2428485730567176,-0.2959121878924801,4.885999289510698,5.024402934283037,5.310187175760835,6.351790596855549,2.521545897565544,5.651039202666306,0.1846205297995005,-3.212707333721069,-0.1016014456832367,-4.6295155677103095,-1.383060492572537,-2.553380722299669,-6.293173193002732,-6.387686300364721,-4.2859824884090845,-2.1571208715350267,-5.231113735210535,2.9103274747802024,-2.436582298847568,-3.040490617680785,-1.28171778722324,-7.475866061882418,-5.765774433067521,-8.31019099014972,-8.38359580744837,-6.614285221334368,-5.696578578920397,-3.882721095257764,-5.821609008844881,-8.070028539564978,-5.460517725862781,-5.443282800410405,-8.696620284299328,-4.726598492143371,-0.2740216175621122,-8.323696620082826,-5.919412597524886,-8.763308550382593,-7.041173195460765,-1.809885892794528,-8.177910926926314,-8.12288841871515,-11.529081257236047,-11.676752894919318,-7.0819674376017225,0.9523273347146068,-6.998449789916147,-4.341770467140549,-3.070136681983158,P04,1
1740998132.223182,1740998133.218724,3.4980618953704834,4.493603944778442,4.0,9.686495240108162,0,1.0,-1.2392290852478032,5.405134712954796,-1.9243168242364144,0.772200907275207,-2.2607880908674933,-4.983024205060307,-3.108572761915218,0.5174147685203339,2.572641451543072,2.051731089493578,-10.211522667118466,0.5499663659309518,-10.54973024485131,0.3088016351613425,8.97827939393478,10.263707424545988,5.713036870262616,7.551433490660353,3.162931807636818,3.021514205788964,7.294766898666332,9.348453711748832,8.559394845495898,6.001023827864815,0.2341721119156727,1.9673347268896304,-0.233055257673347,3.4119796443512884,0.6646759224922347,1.1687060916263905,-0.9698802679699342,0.7524934577633924,1.285253786179629,0.5654313670115861,-1.0807913449157347,0.491331182260134,1.0873519170434522,-5.877023461193477,-0.076028329769053,-2.213821061160539,0.8439348742409618,-3.979859455496734,-6.225076284299936,-1.2456705071961378,-6.067656846874431,-0.4028061326771449,-3.240965403165037,-7.020684096150454,-6.52102535967826,-6.885014810526625,-4.326441728147037,-6.497874035113576,2.387843243032961,-4.533242457810064,-3.0063585471683982,-1.4216147247776132,-6.529137732092719,-3.2567707169326523,-7.121157317655914,-9.229085275218946,-7.72064816418137,-9.98612977422462,-7.139166398554536,-7.751291467560733,-5.98878260459641,-7.418856707242616,-6.852490909009403,-10.404992314812114,-8.793051278860686,-3.943411871807849,-11.555538691253648,-4.220932232275368,-7.442924778638211,-8.134264462930368,-6.667723148334357,-13.096319977453064,-9.596582265480972,-9.428029841185168,-9.157880843204737,-7.877409287557832,-1.6375567428835658,-8.514745062430805,-4.781476207743174,-3.7395570200563295,P04,1
1740998132.473044,1740998133.468586,3.747923851013184,4.743465900421143,4.0,8.371766338271954,0,1.0,-9.227549208713535,-2.122947069625249,-7.869677347701267,-5.018614941541369,-4.806896304515482,-7.524950031075064,-9.525571439513628,-4.912997564376203,-4.996004253586256,-4.047691507044911,-6.814382476443663,-8.956033210719426,-8.89660886780871,-6.542507848029614,-3.5248039172404697,1.486792638942975,-6.107498679499748,0.2895279381723923,-1.2254286207899148,-0.3115915961622776,1.5405500825110283,-0.2690220274495691,2.699180249231187,-4.515188247168229,-10.798663143265324,-5.553629540586731,0.6701092307086913,-0.4192635738869826,-6.483286562567693,-3.130499236398592,-6.936755170839368,-2.4096798243369206,1.7754731468592266,2.136249080633867,-2.496687168751697,-2.526223539023512,0.8177226251588148,-2.1174838197942507,0.6457331813503163,-0.1329340300285331,3.2678979167787747,1.1921048886951182,-7.761885035476114,-4.929538246947837,-6.59748790715825,-5.022021884901689,-5.4508965062062735,-7.319698276635762,-2.1736885184905392,-5.439393887067958,-6.506731318436151,-3.2608970215605018,1.251398239183824,-4.0006650788690985,-5.729810901801261,-1.7114034649955143,-12.551438881431787,-5.619649393133996,-6.237176478256119,-12.604240841491558,-7.977589073460695,-9.031973072435228,-8.662355399647469,-7.240936836105369,-6.319627957371487,-8.628970851334927,-6.547900507328258,-6.272052637863535,-8.279876041247478,-7.573396920263056,-11.94590431493512,-3.122411051440992,-8.434564041699652,-6.514275111165951,-9.038734258703432,-6.784216641169492,-10.229919077887972,-8.916576682551822,-12.26599183112495,-9.118504160587792,-0.9458076716508091,-7.360752295084171,-4.233258185456535,-3.8530310211625634,P04,1
1740998132.722905,1740998133.718447,3.997784852981568,4.993326902389526,4.0,6.705928084691846,0,1.0,-5.930368883455396,-3.4470801812449565,-7.106141731665309,-5.753952002383005,-6.824581119433722,-9.940843704394217,-12.24047436597239,-6.805232920532591,-9.964873297045004,-9.230538194220388,-3.944234835088036,-10.12229994323831,-5.837959298573613,-9.865678393194866,-3.511767737703181,0.1289362821606256,-5.69588487465015,-3.1493842459801664,0.0854162845647065,-2.081807705473702,-1.7599764761974326,-1.2250015483263887,0.5540926366124787,-4.966798978224739,-5.155509921294037,-3.837802406559119,-2.421058697033737,-2.6893498300982026,-5.024548044887497,-3.2706221716720973,-2.8615676912767354,-5.368644982572937,1.4005340829446355,1.826378781809113,-2.9149514221383948,-2.90956518802106,-2.1341353194355555,-1.2783299860136663,3.6487252925754974,-0.8525117454987168,2.507047827868052,-0.0480136884390224,-7.885148085693297,-7.221609715778147,-4.350102801373886,-6.263758300615506,-6.950674401921534,-6.785470113922272,-2.47286565686605,-4.3294730856626815,-5.9342913333190594,-5.251133183341183,2.4026158633954844,-3.80035360423765,-3.789619943445015,-3.365232969270973,-10.045344469065988,-8.352369224458418,-10.615426381056876,-16.86149690045162,-7.934871783781894,-8.472158522471425,-7.1845883731252975,-9.321336989235608,-7.796313553901576,-7.022249628667245,-6.309733021144118,-4.746532184749933,-9.373078621684112,-7.7062066926434625,-7.460834212075303,-5.596479338351276,-10.240771106049454,-2.7603955765863346,-10.358654713213264,-6.762725620795963,-7.309673702764448,-10.435189021517376,-12.651754178395477,-6.574895574904494,2.247828716551054,-8.9147073770648,-2.751579715261587,-5.370148381821609,P04,1
1740998132.972767,1740998133.968309,4.247647047042847,5.243188858032227,4.0,7.151694314527208,0,1.0,-4.226051558265721,-10.825478771360618,-3.685684936652776,-6.4800167357876575,-8.016451987887777,-11.67976171393585,-13.61787395637371,-13.330376429875322,-12.418821215695177,-10.6013931122054,-7.664456626014547,-11.122093333448497,-6.099449187884595,-9.884776483980616,-3.501076332848031,0.3070225722915842,0.5253420133285573,-2.509959229298805,0.1244302713999855,-3.227599074490563,-8.242177612623413,-6.523670052612656,-6.191976314688281,-5.0158560705622826,-0.3592025555296229,0.8131510226166117,-3.745674568603132,2.796347328368612,-5.834481938810172,-3.7406996557755767,-2.6029030618839952,-7.51614347374077,0.1231614127819431,-1.1372388022091997,-8.275220878966635,-6.209249634574529,-7.077752525299903,-7.070049850943074,-1.8050041543777275,-5.051426707700808,1.1966260700124232,-4.712446530406142,-6.314395517062187,-7.245350062700146,-2.6135627214222,-6.546699036392952,-5.798428399067232,-8.39722538458459,-6.640363742275301,-5.054990835355939,-6.566917664482034,-7.026018833328516,1.992613319367684,-5.90704516850812,-4.16981104911812,-5.302433578316716,-8.131787737633028,-9.258562701021331,-10.702159217746864,-10.626768650188732,-8.808889240914876,-13.153595926053274,-6.307950237515479,-10.78595053823264,-9.803766085302854,-7.417533132338463,-3.412509572652377,-6.610869039479415,-14.188481092102432,-10.125091801992887,-6.098790822598304,-10.856307241212075,-7.991293317850252,-2.8630413108359614,-8.520081705903799,-7.847933872988461,-4.7404416842924055,-10.224950112408852,-11.80996006813544,-9.494727786625972,-0.6133009642223218,-9.74231487718854,-2.437402177805438,-6.263208126272311,P04,1
1740998133.222628,1740998134.218171,4.497508049011231,5.493050813674927,4.0,6.391796270661805,0,1.0,-5.402791209621265,-22.83303252833573,-2.9514306343794328,-6.290003453350963,-7.566531820294109,-9.214866104925626,-12.026907721562814,-9.00540636985916,-9.652336888874698,-8.88504450665102,-10.260440678270408,-5.385703018224878,-6.347779700819912,-6.838423913049415,-5.6821458606224695,-2.566358194689552,-0.971916936703632,-3.938621816681041,-6.361475907560444,-2.704271266295504,-11.247871308822674,-5.545573833766415,-2.874167929763757,-3.292118019054551,-0.5082899259654996,0.2977971836672353,-1.2814528823721243,2.356589022292892,-7.905353075433585,-4.761601887293918,-3.455251406335132,-5.699975147351626,-0.032051686372832,-0.8105191470943385,-8.10488412966994,-5.972819731786199,-6.489283138196127,-2.6840210728226888,-3.116744887840908,-3.128071203773182,-0.4661433417887943,-4.4125933682959095,-3.34744972806418,-4.1409387265447215,1.135923218075401,-3.545724824042376,-3.8181743375357744,-4.870663502401651,-5.0159023621295695,-3.771326902868047,-4.104013049637423,-3.456166951574144,2.3402380852336027,-3.493714873095881,-2.877414149112779,-2.011565562782535,-8.31439093702937,-8.977567400290269,-7.914037370268265,-8.06715697638263,-7.663518998372698,-12.646734797230724,-6.4282166322475,-10.729311308542258,-7.943815850200845,-6.175780755414348,-0.8691376981208998,-5.655727595457907,-7.247402907151419,-8.441575551661067,-8.45642324800181,-7.127972453070103,-4.9291647950172965,-6.657758619849008,-7.455533753723116,-8.898650683615463,-6.287261430354738,-8.671708598780857,-11.13711540936017,-10.973396604238523,-3.819777374244749,-9.029475848362445,-6.487550831323743,-4.369493286680381,P04,1
1740998133.47249,1740998134.468032,4.747370004653931,5.742911815643311,4.0,6.240867266733516,0,1.0,-7.865579908025094,-13.492322294751952,-6.990036543913544,-9.653101225319215,-5.070681495968296,-6.311022480939894,-12.184271628067282,-6.971301481764129,-8.64735793544031,-11.035196532702653,-8.782426340603628,-2.7704709245299872,-6.350562893260287,-1.5274615502958666,-6.805534703146109,-9.033193297773789,-4.435434447149861,-6.682099121800186,-10.61772709377421,-5.597350037722404,-8.10467676506216,-1.2742161138929031,-0.0159325027216564,-5.342675358985847,2.136485593808554,-1.0921016615098411,3.2975299898150467,0.735693220308924,-9.821824948176738,-3.91526139433324,-2.048770294449838,-6.5021215561565,-4.917498894486406,-7.595757335235289,-7.1091599787192274,-5.220387645114965,-1.950986765482995,-1.0507599779568395,-4.278838470567815,0.2201745576137044,-1.453010370259933,-0.381803941298084,-6.622842791703885,-3.1805710168795813,-1.4095978828119209,-3.210664523903124,-6.565826591010797,-6.804227489578123,-3.8654885413175273,-5.717521958373939,-5.187208814020932,-2.2526213668436634,3.26796009766614,-1.9541082753754413,-2.412489356824149,-0.4897744038042289,-7.224392992323053,-6.672707953482759,-8.153865553282696,-9.308144153229208,-6.364212618867068,-13.97618696311673,-10.058495607188624,-12.370374416962848,-8.675105183440326,-8.889352696710125,-0.8479045788457918,-8.462653994217737,-6.201504244801402,-12.566742626730466,-8.495292921486403,-5.9112574500980255,-8.020354697820057,-10.13285113081986,-8.563655663730504,-11.947848441794342,-8.993196196172793,-9.973031583176937,-9.765357104202542,-9.080267602051268,-4.058418134143048,-8.24788175414713,-9.104886503354953,-3.291360549577582,P04,1
1740998133.722351,1740998134.717893,4.9972310066223145,5.992772817611694,4.0,7.324236220605754,0,1.0,-3.5552869911229914,-8.724222624559953,-4.02408232589827,-9.96937607192647,0.3255772196073482,-2.5362048930880943,-9.741169876024712,-3.408615583602235,-11.316958782165266,-9.18785017278228,-11.647851333971824,-0.8041603202348035,-3.302364943440739,-0.9721308317494798,-5.222654100295426,-6.339513841176904,-4.630798520812639,-7.076691011524043,-4.092486523014486,-8.322498450250972,-8.747411535708306,-0.4539086743008139,-0.596900961112313,-4.5725234900697,0.76216216606409,-6.617914773057749,1.222188735885299,-2.5236661684297874,-5.336090141648323,-5.4414247968844895,-5.589311424357267,-7.292278820173232,-6.219270133724482,-8.412795574132804,-11.31547552797694,-7.233458371144326,-4.627095983624364,-5.295789166628186,-3.2816519060259526,-1.366487063623763,-2.383282955178858,0.1083213275287439,-11.263794415327686,-5.504337136014059,-7.396170544839804,-5.887321974722896,-6.297402971242688,-7.391640820043612,-3.7621533968814633,-7.00306463748468,-8.209542549864123,-8.264729022385438,-0.9477668765405416,-2.414165085114279,-1.8604877863481373,-0.4619820077076881,-7.570723523262127,-4.087861977708977,-11.767847286452485,-6.66965287344251,-8.73262921261285,-9.874842957496316,-9.01509760335162,-8.8076213641605,-8.247634085908835,-7.275248887143598,-2.1594900556975487,-7.761848066762131,-6.424469652909112,-7.136002065259044,-9.915591973768748,-8.302119565891902,-9.026389339576664,-8.289057864951694,-11.208479859423669,-10.466656656184474,-9.295266476233635,-8.276319100200206,-11.53627103630387,-9.385638908503552,-1.3993779229057737,-7.196300960325024,-4.085007658098785,-2.867418973079656,P04,1
1740998133.972213,1740998134.967755,5.247092962265015,6.242635011672974,4.0,6.848373854458863,0,1.0,-6.476309480555948,-10.372040041113824,-5.636364572697548,-11.747295016802362,-3.223491629529312,-3.838713128085236,-9.710939290499384,-3.5162437451527784,-8.73632835218977,-12.342611729641035,-4.27480489620014,-5.1468485955734415,-7.2779375306033245,-2.910954998502868,-2.6782994424607924,-2.065559282039294,-6.164108618333013,-0.3710792764126357,-0.7380787563274755,-4.558440757676538,-10.040359759598893,-5.320354764430983,-7.121780125088022,-4.262018285160078,1.2273978736540714,0.6084981676901825,3.0844860255280926,3.496008918758215,-2.06436772611432,-7.106618851038943,-0.4054760766207379,-7.703451383002497,-4.706664403853071,-1.8715270940327344,-6.521546381506413,-2.0851169570846686,-4.33013865882814,-3.9843498210284194,0.0429472097068902,-0.0803273868553942,-2.985118471597276,-0.278853112156239,-3.503820706262861,-4.767057262345105,-1.3056017721739277,-5.517247241499124,-5.189240587525337,-4.925697207522901,-1.61211020025166,-1.468464034140338,-4.911591030358238,-5.665336204683608,0.1553166397142766,-1.2417142562035488,1.9493524096163293,0.0673008741032911,-5.517575117538607,-5.4201594879564645,-9.162386847368529,-4.68941044520112,-10.187203885541887,-6.944974435085745,-6.045678878747421,-8.779485892269435,-6.434023128283153,-6.740362773950589,-5.901951648284237,-6.182781704549356,-1.7925105949119913,-1.218931898727677,-9.711148499136534,-8.131913010303075,-6.722042177049214,-4.170967479406234,-10.461134394628598,-10.373344142970314,-5.506222065538725,-7.619793236124273,-11.516121449948916,-8.7609170711847,4.224105035084236,-7.415464701379768,-1.6330028544103117,-6.439278017901203,P04,1
1740998134.222075,1740998135.217617,5.496954917907715,6.492496967315674,4.0,7.3338184177458,0,1.0,-6.976164967566523,-11.95042126334708,-5.927599813823612,-15.486838183658932,-10.142829587213155,-8.525685494112329,-9.971707888609329,-7.904850623582704,-6.004032061508775,-8.459275576736715,-6.681504972733471,-5.382021383939092,-13.499703310206964,-3.9340547241640937,2.095790064967437,0.97135792945921,-3.167513733216188,2.015663315398588,-0.5713136176705177,-1.831091877125348,-5.752318255982116,-7.927591351887568,-10.843011938898064,-6.299000091567715,2.3507931140170086,2.914020894018191,4.513059574703704,4.909166175373773,0.4996781795332921,-4.851300464661271,3.413888452438374,-6.081320963534672,-0.0407060202722723,1.085728824772987,-0.8087517820226637,0.7830482876993912,-2.865604048311912,-3.034991376357772,2.031692645643724,3.714288824215211,-1.6176073294526367,2.662289597659755,-2.429193562333921,-10.249864185074934,0.789113924516235,-4.491685047956797,-4.028651699308491,-7.062157658381738,-4.802761205846288,-2.7763216692884423,-3.954105275402687,-5.331156408184694,2.366843378424772,-1.574375012025535,0.1777080103796046,-2.0360204456840734,-6.77768990119641,-9.641564816371853,-8.03767826134148,-7.0032990682325575,-11.041054634760286,-8.378953749378784,-7.177592274628172,-11.846016618964777,-6.429877909034064,-11.990126848841928,-6.149110203269458,-8.443104705858902,-3.615113388957243,-3.962266945175896,-6.46799590706756,-8.310681216791062,-7.343198381579893,-5.63207413702798,-4.475762465596758,-10.583598787582872,-7.328758215454637,-8.717944515493691,-9.793899277087917,-8.670043102975225,3.16889615624449,-9.995750913814325,-2.349734356924716,-8.384011929939534,P04,1
1740998134.471936,1740998135.467478,5.746815919876099,6.742357969284058,4.0,7.6169843467449265,0,1.0,-5.48082997175311,-10.27178541068861,1.0868777184485368,-15.612128335115116,-18.198020013444893,-10.555266183442363,-4.845535199357046,-7.684601778974326,-4.260623587695582,-9.378687351349944,-7.5452035229184435,-6.665201784545585,-9.756594202228916,-4.384672141272629,-1.0407699174959075,0.1183553740161512,3.358227740045356,0.7499811270041914,1.4364778433927452,-0.1573690248434094,-1.0566590310816113,-5.007620553100622,-3.1282135232360293,-5.1276027222758005,1.279741224618688,3.419435107830484,1.2839190922765775,2.240339548016595,-3.617951483309772,-5.468854466752782,3.335223085163603,-5.205993679346714,0.5022934157667707,-0.4507713259800335,-1.985873857192228,-3.768282492585653,-4.743744597900774,-6.74263250295863,-1.6123202667638326,1.0672332362518322,-2.788477209585776,-1.0591867542777458,-6.393014670771012,-6.008919381468891,-1.734351466316966,-3.2508828549690465,-4.824766299524665,-7.556457212443696,-4.6583183672645765,-7.201151105846258,-8.764456818953516,-8.20077546685508,2.736602359328552,-2.7114526478277847,-0.9077211989814912,-1.45463639945034,-6.16577508994515,-8.219571148299838,-6.658982459798715,-6.370014319648388,-6.852465555669237,-6.989364730360652,-7.214234493722934,-10.886958480827431,-7.538156936840399,-12.897648354264671,-5.835804523847672,-2.673920926820357,-6.883511394834924,-2.7763591737208246,-5.457477742997302,-8.841542663090268,-4.3818562900604725,-9.389714627876302,-4.433064369032388,-7.832934524995801,-6.512087968201611,-8.0157002857254,-12.717382268149787,-11.652328660808076,-0.7131169559192779,-8.194221669335258,-2.033545344704308,-5.098713081210562,P04,1
1740998134.721798,1740998135.71734,5.996677875518799,6.992219924926758,4.0,8.248456468486523,0,1.0,-4.251399966162039,-10.063460871630143,1.0900204963092306,-9.895717560647444,-14.395997986236312,-10.472137466324591,-3.556745767444175,-5.7916829532025424,-3.638495984990551,-11.649659457315517,-8.814910039408666,-10.143629734946916,-8.847724922896699,-4.3040817193148415,-6.2554120286351,1.4383390212625382,2.1901857700306264,-2.2551668731994416,0.4385902018276832,-1.696041363154527,-2.568307326623022,-4.5956394847640745,-3.650170395337196,-3.7150202993139065,2.76842951316645,2.2512421745287887,2.39362671612829,2.1062257889584384,-5.370111777215183,-5.1137972888613135,0.2235616460337931,-3.0930075701643265,1.6570959268435212,-0.2797756253729164,-0.4304965998167562,-3.863405290830013,-3.5544112178181893,-9.230449240120452,0.4447113856615737,-1.928684836986313,-1.829700911376044,-1.684819578147276,-5.811987606136817,-0.4557768101797413,-2.809069466348613,0.3391099878054293,-0.773393694976622,-4.783106019610054,-5.204161746615722,-5.798220482469514,-6.674666698696143,-7.279699275364146,2.709145031022368,0.2927098465983671,-0.0520979503285702,0.0030944825746759,-9.20577700463397,-6.5086969385364615,-5.210940351128233,-10.27957285123448,-6.275744994850684,-6.615866186797136,-7.172058549811251,-8.9947783865824,-7.214107826594354,-9.078954183547772,-3.0674539717213216,-4.327584442923556,-4.462422380861936,-4.5853435087968375,-7.283309864641532,-9.93108028460542,-6.506211380964571,-4.705535435102604,-5.842333921541232,-11.04410067022571,-6.008419840673327,-8.984935225764927,-7.718703201848961,-7.299854190821742,0.3184102725538459,-4.727954329420202,-3.275088824065328,-5.303906896251368,P04,1
1740998134.971659,1740998135.967201,6.246538877487183,7.242080926895142,4.0,8.724792980351081,0,1.0,-3.3202761032249164,-5.917525831260575,-4.130304507770242,-3.9003351909549626,-14.88536662312529,-6.468607507423954,-5.362464482190429,-5.231417469771856,-5.315039329790212,-7.296916518394799,-6.595616633387774,-5.50632797727531,-5.5339735708182,-4.760087313529434,-2.9517674859102137,3.9385875014284446,-4.787759730680893,1.3719649544714003,5.75756949159416,0.511982968113361,-5.968612863442746,-1.0551944136788922,2.277188201662229,0.456134212967882,-2.02999236236951,0.7081332057884414,-2.1633128546832974,0.5302634302876731,0.0774158419033031,4.627474549051,-0.4472845447466256,4.15845474697014,9.058914021738875,1.3243210181199476,-1.9272259002652223,-2.07722324316518,-0.1978453607248901,-1.114230339691024,2.3985088440502467,2.260440197264742,0.3239430144767058,0.6220183443117282,-3.4676698157593933,2.277801391504204,-4.553399813425573,0.6059495178296184,1.4475849422144007,-4.033769985713395,-5.486479255279328,-7.908347464325446,-5.207292258721383,-5.753127177977193,2.154425629131897,0.1782188399572905,2.093146188396457,0.3607972625919493,-9.053945982463192,-7.019615163051915,-5.140412249293127,-10.76744290454345,-8.412515286018394,-8.345417377841672,-9.80866934864457,-6.427510215225201,-4.664322897182041,-11.803504756170575,-7.047643136586278,-5.777936053591986,-1.808034944544998,-7.426816565481586,-4.405715345218949,-9.081094298275822,-6.711023574775876,-4.2891394005635295,-3.552738023549771,-10.900870460273248,-6.319402778933968,-8.470948048413568,-4.915874868954616,-8.505868525793511,-3.544476505356956,-6.879057936424263,-6.238746157617748,-8.20708037086576,P04,1
1740998135.221521,1740998136.217063,6.496400833129883,7.491942882537842,4.0,9.013247964202998,0,1.0,-5.185962666043422,-7.15817311630889,-2.5837844244258235,-4.579147270607604,-8.39018874981085,-4.803248028879934,-4.807148249181662,-4.073880501184073,-7.912244610605079,-6.7521210115314245,-5.322447122789361,-2.7780619789487053,-2.2274222083848625,-1.819354471355016,-1.8681729613665097,5.323400774106689,-2.5378928786307315,4.019840760469052,7.698155226408664,2.9954842024013595,-7.482664458479932,-3.636877818518382,1.4830369681341629,-0.6254474330322751,0.1535503132080287,3.5157732293940693,-0.5571705386715647,1.8879304726551864,3.6984808287784414,7.930125960855035,2.7365940757090224,7.747364790407495,10.486581732147023,2.814445784645491,-6.225277828739605,-0.2417662302933699,3.474533094325241,3.2646766912273897,4.620412035936025,4.607243458513988,2.7484243045700643,3.128313101161049,-4.3258411839344255,-0.5418626183694475,-5.151875772122983,-2.081173587237886,-2.28231712760582,-6.784518469875458,-5.649339205508259,-5.825929657457519,-4.483806661944058,-5.161769216706709,-0.6689694341963697,-5.532299017263455,0.224027551170334,-6.116493148436589,-8.155188596790559,-13.961507423433478,-5.694346431160737,-11.470613949870234,-9.921865706866322,-9.796863889315436,-11.06506077183684,-7.828611854279403,-8.721109343845034,-13.135736038733077,-3.081734294901404,-6.9664321265857705,-4.537891029699408,-8.192063120331557,-4.943403534638349,-10.919921854528322,-7.60050394522633,-8.292605193876193,-3.91844659566965,-10.173045844854904,-8.207000137031162,-8.540314366949987,-7.915617151175267,-12.69479613789371,-4.685870572691232,-7.377986454124251,-2.5017963658490805,-11.37326909486514,P04,1
1740998135.471382,1740998136.466925,6.746261835098267,7.741804838180542,4.0,8.821875145336964,0,1.0,-8.223606219407452,-12.225653479482029,-7.543313062384983,-12.629307726375272,-4.763389477300181,-6.807380498240624,-3.640458233749309,-6.48019255153271,-4.433327391385582,-8.832706531953855,-4.616300638882565,-4.5218022879413455,-4.06988270184955,-3.4057608996203297,-7.912585864467205,-0.1626136433159791,-5.524626263375168,-2.5052862972515304,4.697213791187458,1.0617579995478963,-4.1192885834981885,-4.238103015813675,-1.6518671068249844,-2.947431497425532,1.9892033225620305,-0.0684621165297226,-1.454470902522397,0.3108675768405411,-0.9207747534214764,2.4788852894009947,-0.267741685838035,2.014660275006708,4.185020409842572,-1.661877477375904,-4.297605130232663,-3.4372703163191454,-0.9312391185064574,-0.9323919529438416,1.364870282464838,2.1399914602280616,0.4253023744206719,1.202304184154883,-4.567478316027236,-6.584181252690461,-3.442896717426162,-3.351555315158463,-4.705453139877561,-8.155654663304151,-7.436367362020002,-5.315409078516534,-4.023439333505811,-4.9641569898816655,-4.048273742922209,-7.755863034614469,-0.9213878519688616,-3.246260903705855,-8.08235070983116,-10.889793599890965,-5.607330043140301,-9.425192277928602,-9.533676311158631,-9.310321174873158,-7.118736127604444,-11.689308758564316,-9.64459503832949,-11.308917722664876,-0.2476809300995689,-9.202713885743645,-7.368100781235163,-8.320599778661206,-5.661978236811853,-9.625425572003186,-5.4934973707248425,-7.539527607996561,-5.35920262519779,-8.679303460259831,-10.359519864892397,-11.525169245884538,-7.792839851830502,-11.73054029681631,-1.695904281328153,-6.412165850263679,-1.3395808033900838,-9.158175101097658,P04,1
1740998135.721244,1740998136.716786,6.996124029159546,7.991665840148926,4.0,6.67438111968793,0,1.0,-15.44119189721629,-10.984492348120892,-11.93886723592784,-13.020068014518433,-9.439260074702329,-10.410683292797358,-4.269933913425165,-4.7474352175550845,-1.2381415938189706,-7.66861446497248,-6.55162677732982,-4.98380348547426,-9.585771555666934,-4.526133335526294,0.5078378393794359,0.8701975266472974,-5.6745504063388825,-5.7252625850775285,3.332143987942185,0.7552657648354522,-0.7434763184500781,3.1577714215519475,3.803073128459174,-1.2553563408710664,1.0825886785424073,0.1568123984536188,0.139849241410824,2.0352451983039304,-3.5889756360391307,-1.2096424760915407,-2.311062203121995,-4.911616173313743,-0.1328914051102911,-2.385438378136509,-0.4841370347894275,2.727605363823366,2.8601248881477708,-4.581860305267046,-5.910988006353658,-1.8711941047479737,-1.7431752180859563,2.0369655784327647,-4.211653278072086,-7.878652550243006,-4.484536182854307,-7.684958444708222,-4.612987186318984,-5.652809905444594,-4.244970907757888,-5.1409770615756,-6.793569963510738,-8.6147683868318,-1.7711188354236995,-4.561413930650313,0.2679881336436219,-3.1671698304401863,-8.852505018867818,-10.48116168941263,-9.55079729747277,-12.224281731224734,-5.643750052411589,-8.448007273353532,-12.100209183663525,-9.85175906863778,-6.181055959354791,-13.891403344947914,-3.5002068123651577,-10.605900140092963,-7.915540395208276,-9.319525761265163,-6.8120825025498615,-9.17495530416434,-7.4066542468806915,-6.530017930178497,-4.863490924910802,-10.58531940520462,-9.15096944584926,-6.328483484921556,-7.13022058728372,-8.154700374151476,0.5574194980250543,-6.5830553831041865,-1.2317599779140669,-6.966828085922914,P04,1
1740998135.971105,1740998136.966648,7.24598503112793,8.241528034210205,4.0,6.972176890185798,0,1.0,-17.57820911563985,-9.586269197183272,-10.249997101991324,-13.769487460718198,-10.447679212745822,-8.148644776340696,-2.363402579558816,-5.600161487810505,-6.283073500669482,-5.635822139177816,-5.932476527541243,-5.269558005220651,-6.263467909170864,-4.15508263424253,2.9475835190064394,3.757587247026763,-3.226730194978485,-0.2720010420856677,2.4745584142926185,-2.87900250998065,-2.04036392793986,1.2564755696257008,2.486384899982444,-0.8205170720939913,3.822767368123379,-0.3199134044763171,4.577252571333835,0.5238318058702914,0.0902514610252662,-0.5962379350871512,-1.2379490104352278,-3.3245227377882545,-3.033447378930458,0.1472763325611003,-0.8394331954467673,4.550944055151827,7.149002753544878,-4.072637286972973,-1.486840269984142,0.314777084219106,-2.305393929636716,2.4344162492168824,-4.158852614466705,-8.363649783825577,-4.28407369124016,-7.108750402405363,-4.626213811704694,-4.92378745959365,-2.764312728639604,-3.08077658141932,-4.12395830557951,-7.620388993798013,0.2706451467759682,-3.073200982037793,3.665793260905194,-3.102188770638784,-7.752959922625962,-11.16659675004318,-7.741165043073007,-10.808538906427357,-6.706879708327952,-9.800547381430722,-10.601613149223253,-9.538912799428896,-8.39691377627063,-9.070518891662868,-3.4071322348801267,-12.22791839544039,-6.891919656634881,-9.168164848590472,-7.804622139429959,-9.024522810533504,-8.127100941067699,-6.998577579044175,-3.9953044218563183,-16.18782778402941,-9.363115169592202,-7.453104504516936,-3.346249450662776,-6.4748231880529445,-0.6855760592688337,-6.81466873675153,-1.8564617451546432,-8.21125475223729,P04,1
1740998136.220967,1740998137.216509,7.49584698677063,8.491389036178589,4.0,7.691796664550081,0,1.0,-13.472194039889189,-6.717862197059881,-8.85181088708925,-7.684900533821289,-10.53888552832297,-8.791961798003566,-2.2921575856795484,-10.1716279532709,-13.971894574148088,-7.04700093901465,-4.729307503773619,-6.536511515470086,-7.033959180036732,-6.747331187041458,2.737068849380224,3.377873847687206,0.415123399084077,-0.2097181769361361,0.6634324748818422,-2.4656241000131622,-2.039307168890531,-7.223774667975955,-3.01213227335634,2.049107517570046,4.531926144757056,-0.7473720157007495,6.474309573747678,-0.2061120207702824,1.786413876665083,0.8563356794853265,-0.6430175811832304,-1.6425763357952552,-5.43847457602101,-4.953671697640982,-2.9053910808361,1.7958348667508386,5.352639030758247,-5.895988236269264,-3.604636861698575,-3.032916034639128,-5.916456101787411,-1.131902833295784,-3.5218000213032923,-9.538247391413794,-2.9946028159746927,-4.105065478376425,-2.042961866290942,-4.502822331186508,-1.886733111974101,-2.155931547304869,-2.96027458434265,-4.76125736721689,0.735355162705905,-3.089760893234176,2.9454741853020683,-1.873852369188132,-6.737261523085324,-13.859672156269092,-12.976709181234067,-9.181258347405958,-8.214342973009527,-8.841415687592542,-9.777053846145597,-9.40882847620368,-7.396213169318669,-8.957569851260443,-4.413556395326377,-8.533348257388724,-6.325202486837464,-8.986766999814137,-7.196669111254478,-6.104087601502314,-7.313230703655717,-9.42185911399396,-8.516060201994089,-14.323861144861494,-9.691677712994991,-12.013464683717254,-5.666950473854087,-7.472022989586216,1.4028818368214249,-7.961840050144674,-3.3088149106064613,-5.940022984972854,P04,1
1740998136.470829,1740998137.466371,7.74570894241333,8.741250991821289,4.0,7.527484122638728,0,1.0,-11.290023632591277,-6.41687063120829,-4.159472711271111,-6.06556347305022,-13.5219454636108,-6.89909427563939,-4.88214929385485,-10.828690652116151,-10.693727491218748,-7.422444052544098,-5.901802625345317,-8.093962156849399,-9.727354236334977,-8.836714315835124,-1.7690732618343954,-0.7860264245106048,-3.795863873510157,-4.293068280177074,-3.1584936634814715,-3.6089398276766382,-0.1371692328775725,-3.928667112217007,-4.083684576534864,0.0051145913561228,2.6570415215957484,-3.434723830848908,4.696529428550196,-1.1861622457673404,-2.883352944498669,-3.435434723777336,-4.012050545108332,-2.510459175181359,-7.621925450929121,-7.032163677389809,-3.196317125635193,-4.320445401768192,-1.8149835681182325,-9.698900336956283,-4.878110614527159,-1.2490497086711427,-2.74945781311428,-1.925739322390872,-1.0565302652600266,-4.448289678992609,0.8276422778604997,-2.201196279146661,-1.851256981199584,-7.424669118296468,-2.4683633003096945,-6.16581640590804,-2.520947102985551,-2.5501448746207083,0.3060153895654278,-2.475063727917856,1.9881636706142296,-6.36153492552028,-6.356508518314232,-6.772763703938067,-11.060032668522767,-6.244066918829682,-6.714037316100304,-10.314632580362774,-9.64223956605467,-12.387635979722294,-7.957619856872464,-12.154777728410432,-2.593804214482582,-3.875083737582512,-4.473214426478017,-9.296170198416643,-8.094166876942063,-4.895792680131904,-8.46290009711605,-11.102012049715096,-6.658341624856995,-13.249196158487532,-10.691374883902142,-14.372857488170634,-8.885311448220254,-10.020143597747612,4.387782246422686,-4.486471521765268,-5.103106186431601,-4.320226136543402,P04,1
1740998136.72069,1740998137.716232,7.995569944381714,8.991111993789673,4.0,7.329269000097824,0,1.0,-11.97547553294774,-9.634020870404893,-6.01456781094001,-9.349265377032202,-9.765154350297632,-6.246636385516863,-5.205815895293819,-8.441290980256484,-9.90613223827596,-10.639683251540824,-5.738526976658553,-10.171686243283569,-2.938821772936036,-3.554330273338367,-6.218082949516502,-5.871208766198903,-4.68697092577331,-7.843261705056321,-8.146115764965636,-2.090326592186224,-3.298731607589884,-2.670544481989065,-3.7173828373876106,-4.775037048336724,3.003923394970516,2.070034439994308,1.0914963402524922,2.346561073195748,-3.5093041014420816,-4.992880540718913,-2.099066718271556,-1.7328202198035516,-4.70572794545531,-3.715599022290848,-1.2749829400976596,-3.871737975039905,-1.699190388862163,-7.62549446092504,0.5563576908010729,1.3423387945448264,0.3331143524792943,1.7930452706811857,-0.2555349599449387,-3.11625238770082,1.9241940674589555,-2.6031754397019635,-6.545235675128516,-8.170048129999193,-4.904941723843376,-8.489233471831422,-3.087347257207856,-3.4263568362014505,0.2063761036281028,-4.148276879225432,0.7802161103152911,-4.701405824930108,-4.343113341191312,-3.2105563807864907,-5.71138142241419,-5.3610957949433615,-10.13721489872365,-10.168343091293634,-11.53354082953133,-11.978278120981042,-9.764065564799612,-9.278292142406336,-2.885749350610584,-4.0996448944280415,-2.557842894193883,-7.111406822163239,-9.19456399035454,-7.268682381425813,-9.935813461431982,-6.830775773819644,-10.71159960768733,-11.86150232346221,-14.492274146240408,-12.809537862144811,-11.872717369178778,-10.390136981378948,2.96684074088074,-5.200592738219178,-5.043795541301756,-4.64114291059765,P04,1
1740998136.970552,1740998137.966094,8.245431900024414,9.240973949432371,4.0,6.971211665018325,0,1.0,-7.046667649424774,-5.9070627982017605,-6.113946903667752,-12.502407126206176,-6.467401210880469,-7.311911634954038,-6.034751471435324,-3.5969039038117447,-10.448285388596778,-9.464368890850793,-6.863248720597763,-9.177217589542272,-4.422878557892925,-3.4571286161616266,-2.6788670875488574,-4.186440720045061,-1.290605372834162,-4.365499864372528,-8.964582633165012,-4.346191601827463,-3.407247487831496,-1.4994562924199029,-2.097326850270361,-0.6841314993869343,0.6669996038772497,1.7933423532538335,0.8835466097355565,0.6069722009165069,-3.0874568097375765,-2.906237379036404,-3.654393815604824,-3.07190758671031,-2.707407061798172,-6.058689565347287,-4.038020081651784,-1.6720624061790526,-4.641894158768335,-8.138295690673855,-0.5690570518986018,-2.724141011637338,-2.6929135209895265,-1.168460252833081,-6.200280030363996,-3.4545554785331967,-4.023945913309844,-8.12898664887352,-6.0466790618440855,-5.695108919436008,-5.021270040492791,-10.401996497201036,-10.506159603888252,-8.082031773811373,-0.8333192550770294,-0.9981794078061288,-0.9873120468517684,-0.1191007370900449,-4.346668123929654,-5.578035009686491,-5.478152586506359,-7.550923705293872,-11.434247552664456,-11.058244827738513,-8.696622353710438,-8.915829947804498,-10.822500123109284,-10.001242116734437,-7.938515875151149,-7.477154786594276,-5.743122913982383,-3.873476883557183,-9.079301958168468,-11.129504228017025,-10.567253382542836,-10.909247455259164,-10.970929711864684,-11.50368978171798,-9.579445212469748,-13.019795208894877,-12.320210985049338,-10.40640494126885,0.3430987923129741,-9.347063529217367,-0.4959283005850182,-4.367659719831388,P04,1
1740998137.220413,1740998138.215956,8.495292901992798,9.490835905075071,4.0,6.2846099628217615,0,1.0,-5.020347261850098,-5.568808686810007,-3.625655111313293,-12.185930961164244,-6.634141042954744,-10.062507390817744,-9.867751520857444,-3.638687074493336,-8.601161685758502,-7.085272035773796,-7.455024763654264,-9.086120398256252,-7.537215034454798,-8.644407489260429,-1.352635222608207,-0.9057302619647444,-5.3276120814845465,-4.058304214694443,-6.473671239444297,-5.333662978742022,-6.115828958166961,-7.207799125007591,-6.152681074226651,0.0804139038860973,2.778719409258466,-2.783679518439615,3.27882610613709,-3.5177976531539654,-8.414485166646879,-5.339251185522085,-5.506783130454078,-4.441628723946246,-6.437882557390791,-8.091326521033743,-6.208543980882397,-2.9135901566130995,-2.7542310704891104,-6.51747761672127,0.286366109073787,-4.6457911866209125,-2.279626821979717,-2.886857347447938,-7.805441966711559,-5.667669891919909,-6.463845155597937,-6.986690504951511,-3.7901438045576272,-3.700505898980431,-4.036961208063658,-5.409684332623107,-8.044962151771598,-11.38607338921011,-0.308056549814081,-0.0409934783347661,-3.294618954111788,0.2613501066487402,-6.5352244851475,-9.709170170572678,-6.694556094379944,-7.091567778206827,-9.618454089986816,-9.815221819832296,-9.196132230270242,-7.928304063415466,-17.31910872511238,-11.656767147592507,-6.7905242953780345,-6.514789977196392,-2.9087463564800475,-4.082756400251072,-8.895327998010714,-6.775566145147386,-9.06876163894874,-9.383633771498088,-9.049390568037358,-11.730186926297788,-9.186620412418424,-10.90346769132649,-10.54220205292825,-9.632874731945494,0.6002850580982688,-9.634984236383984,0.0170779902852736,-3.2150470107829388,P04,1
1740998137.470275,1740998138.465817,8.745154857635498,9.740696907043455,4.0,7.6674136942994435,0,1.0,-5.198547316150574,-3.783446095466811,-5.3974077012327495,-14.50402101131431,-5.199517700333667,-4.594930970476908,-7.469064958638066,-5.74494166443573,-8.753132904552338,-12.72805279110235,-6.952560061113251,-7.253000725598687,-4.677137244172178,-4.418945782148,-1.512497956325045,-1.1393122453439932,-4.645510244902955,-4.091574336602728,1.645225222307503,-0.7499805004524467,-1.7065337543553345,-9.375780773152616,-6.939675291347287,-0.3155712092462928,3.88119081551016,-0.1010420429696199,4.049485949756942,1.6278469723440534,-9.375610691721697,-5.175894800477518,-5.614147226003736,-5.899527428067515,-3.440622558712456,-5.788292641891417,-3.381923226916132,-6.119657019639634,-1.0479285977934012,-2.6602327165166124,0.6686776190416749,-3.588609322526428,-2.539603378556051,-6.525096889427173,-7.248866725106059,-5.237996217666064,-4.653696680217415,-3.819213563333914,-4.53045059260877,-6.100155998196701,-6.269560254559431,-7.4984249745601295,-5.192911957428567,-4.884363838174554,0.0826592296302036,-2.7123051276854104,0.3850836051443475,-1.3095257144243508,-7.691313475337632,-6.232816145527035,-7.349472907704557,-3.108099848760137,-6.46994703146626,-8.802497875550188,-8.044220539450711,-8.76350941721788,-13.970856417960167,-8.708970672177536,-3.5408901484944155,-6.47724825142258,-4.958463374495827,-5.428460675236173,-9.188894591458558,-2.51002946917894,-9.54787402327525,-4.8250435062582495,-10.991968042016024,-9.85849921809741,-9.738320784525088,-10.131074049924733,-10.129835449181956,-6.176574590696392,-1.9531370935763144,-6.8612764152863726,-0.0759927907036121,-5.291973577613339,P04,1
1740998137.720137,1740998138.715679,8.995016813278198,9.990558862686155,4.0,7.514594848760388,0,1.0,-2.8777909167488573,-4.413480301241063,-8.070569747419334,-13.29028362109041,-3.3178278011776543,-4.217287343385333,-5.265337575789056,-4.099762293335476,-0.3023710275736272,-9.20341879620678,-6.1536203162898575,-4.381658314636342,-4.590646873711632,-1.4297358848753072,-0.033329881667201,-0.7336660571145819,-1.2435037199286136,-0.8810340242849817,5.077081392870031,3.0069541603203747,3.651825032697442,-3.016110128023461,-0.2510834659582092,0.6198342473504027,5.537932514164925,5.934424721288791,3.8459835713922006,5.762325274123908,-8.237770215401355,-3.936179745063348,-8.346097464000447,-7.9735414474715105,0.1202040853651474,-2.2280385048607894,-2.7593099572810083,-5.830859556699321,-3.6358225653767855,-3.8353242497898448,1.241042183192674,-2.942322958690552,-3.450220927021077,-3.06533851326058,-4.338645895456676,-5.430242833588691,-1.860388051771361,-3.2197639972803804,-5.416906651209113,-6.819547378515868,-6.967792407437604,-6.218398517649804,-1.472100409953262,-4.974972845930909,3.3908460394177142,-1.676058598889523,1.9044311842748105,-0.4407088228237042,-8.947119316249557,-3.3737646014311724,-7.927602152493635,-3.6824372974646207,-8.870717926330144,-10.241709638863108,-9.643602410473484,-8.536769551167904,-8.609013092065677,-9.212065797673413,-3.539889369090621,-4.194715055456816,-5.017644394195057,-1.7903932975400187,-7.526696794578118,-6.354444137335362,-12.229046310039822,-3.513843756460574,-12.552737620314712,-6.669733016404908,-7.5665053631972015,-11.591032810695877,-7.933686971663405,-8.675328361595314,1.6672154486505666,-8.122682101365575,-3.536335336989109,-6.256511457834508,P04,1
1740998137.969998,1740998138.96554,9.244877815246582,10.24041986465454,4.0,7.644219236661123,0,1.0,-6.822645950987573,-5.069517991736023,-13.696378065124708,-7.874678658131785,-5.015884370903341,-10.150166696929263,-7.22008692069755,-2.9459534427234404,2.5467872398072138,-9.426154387307571,-8.785308002286284,-6.318491411629692,-11.521443188336828,-7.09757153226785,4.351320258024611,-2.141121643575008,5.106466453323661,-3.44928615080294,5.377230969393423,4.164725379493049,4.572802459990897,1.1835789359966278,2.1175735671036846,-1.5542406604878625,2.9741908881432337,6.2140785205156135,1.826937643332,5.64258781111442,-4.695670123555655,-6.7972851484524375,-9.912410893519674,-8.813827065779822,-3.9268427177808665,-7.151774954300466,-7.105232921648471,-4.767247311464122,-3.89918229930206,-3.81988741800142,-0.9124082068564796,-3.4754618344305106,-2.720064952071866,-0.7807676538811001,-3.417211104849358,-5.953300673987902,-0.5288844197889341,-4.449958511132513,-3.902213298083677,-7.668927767023213,-8.204790622028924,-6.781324883258869,-2.7656965984626765,-3.12079605166697,3.6206786904383175,-1.3121185721993882,0.0830173406073984,-0.4759045993357272,-11.660005552580271,-7.521409203387863,-8.744649653977246,-8.450569585120126,-11.853054020508027,-12.569651353495347,-11.328380590113698,-9.038542763496189,-10.953262748480132,-6.716607948754043,-5.554577439654241,-5.176790538412922,-8.049658828137261,-4.049432895907302,-7.461579150361272,-9.017309305147592,-9.692338828486308,-5.6125918643989365,-9.091588279286723,-6.785165796710817,-8.30743859242249,-11.74261765850206,-8.600929919690596,-5.740582221104981,1.2895872547347718,-5.14117239761868,-2.6714858740663763,-2.78298258136998,P04,1
1740998138.219859,1740998139.215402,9.494738817214966,10.49028182029724,4.0,7.923416801986327,0,1.0,-13.355903170688157,-8.044308120428258,-11.729805421125658,-9.522709504384624,-4.001492336584176,-6.653904656164381,-9.852646384077984,-5.667967010379988,-2.513940595288489,-11.40055598531947,-9.223889881478463,-7.443330993794039,-11.490592254174034,-11.00466238255496,5.994533964345611,-3.2390669430723524,6.591610689653616,0.625259870370916,3.568669648371494,1.7733829227855826,0.2233046266854774,-0.0686433057258347,1.5132384940283128,-0.1313865347944716,-0.1019716337776618,3.016231010913977,1.265142071391555,1.9166105820227453,-3.2954925833462374,-4.055916693446768,-4.421461658584208,-2.034135816670912,-1.687236951971843,-5.615144866775719,-2.715589852901444,0.1167639037666605,1.0093949231656925,-5.737740861133989,-4.936689914617323,-1.4917246883524096,-3.850998863234633,-1.870754347445901,-3.826205214926625,-4.548575521053388,-2.619967663013794,-4.60191677841672,-1.7118020753676635,-5.281536391616237,-4.958130469256967,-4.084061729662158,-4.322724486243434,-3.75442285773563,1.392385112808061,2.4809873537410194,-4.223566599065848,1.5603813187253972,-13.082722382718888,-4.290617001134181,-7.326341247726842,-7.927648697510432,-8.474479913408748,-13.08347523918744,-11.639345010056148,-8.585224293302888,-7.932206028103591,-4.942895133436885,-5.40932481912403,-9.180595352262412,-7.902808072309828,-8.748249344691832,-10.599624298234602,-10.721680984285737,-8.903621731600728,-7.620213423088828,-3.876498358935416,-9.028155903735977,-8.424387613463955,-6.843036262895764,-7.979497870051807,-6.08629112524628,0.4652937394908947,-4.891255122415839,-3.758494648427949,-2.2431068739374087,P04,1
1740998138.469721,1740998139.465263,9.744601011276243,10.740142822265623,4.0,7.971957769840558,0,1.0,-8.768183335591107,-11.978704254930872,-2.8753459437317685,-6.712970273854753,-3.629995861998503,-6.840103333063827,-9.72263175014519,-8.75062638334544,-7.755564106066196,-5.763510817751327,-3.7271358918494113,-5.672159272501416,-2.8540251815725264,-10.136076382836007,2.215055381776799,-0.2009717954412484,1.957687497274214,1.4000742161397866,1.0848454935880083,-1.4533702064061305,-1.0421078666322516,-0.0625668863155361,0.550396731860965,-1.3379063365864672,2.4897538855487173,2.590937106112932,2.0202389226460875,3.881424606345958,0.0539240352150548,-0.0855431325140308,-0.192377670280698,-0.4472088680161037,0.3680216425596017,0.2913429991170136,1.8937329953769344,1.708524456183822,1.9000795879884351,-6.39383150518908,0.6538489442979961,4.768874274885036,1.0023464611466826,3.068402532140592,-2.9972122338908607,-4.512220440805019,-2.20843234995416,-2.882744355875108,-1.830579435439452,-3.1121089527728465,-1.385140476495017,-0.1112112475659272,-1.3882252358265792,-4.081309189507259,2.281404099623313,5.821480481228236,-5.479579652767712,4.284347392813649,-15.590275080924732,-3.4725074388550574,-10.636983357216383,-7.162032667739952,-8.20396568529434,-10.958237670063715,-10.86042500064514,-7.723680636620054,-5.895900506392254,-3.5194846360527707,-5.81051573118989,-5.669008675618022,-8.143064733273134,-8.775830981174577,-8.12648545540133,-7.950385032754557,-9.190690871064705,-6.792044235987326,-6.312415003487335,-8.477189914798046,-9.462198784480922,-8.444969882705472,-8.419509798174776,-8.49169688531049,1.638778648778242,-4.3666069574011415,-6.603687912506588,-5.062959169217249,P04,1
1740998138.719583,1740998139.715125,9.994462966918944,10.990005016326904,4.0,9.399722043368756,0,1.0,-8.559312613844726,-7.748749187309668,-2.210651999981504,-4.354898218658687,-2.4182185872345205,-6.860885827408836,-7.606587085061806,-6.712355083516503,-4.903070737449236,-5.330026685710921,-1.5538934958456376,-1.6138530141238523,-1.461258663164874,-3.375166911841865,4.5937493728039085,6.2875207760514265,1.562121770109309,4.294898007248806,3.9964988766289022,-0.5650347806682356,1.7711149320714332,5.2948618234878095,3.5675989384217264,3.397276837650071,5.261441539411341,2.914873824030991,4.093038057649569,4.896634898198274,-1.821927597735953,1.6221306509484492,-1.4337954684763088,-1.212994630371235,2.027516418787158,2.6477001634504327,-1.6942928039686156,-0.8352300013316298,0.3824114413856253,0.1531592964995418,3.840963558333568,7.251016393512186,0.1179560857253586,5.702748943740829,-5.091297669087387,-5.038654794123808,-3.614350551628928,-2.2312420575866523,-1.5700531349450388,-5.42434713456178,-3.731969425571002,-2.056233933210562,-1.4727166358269936,-5.902829728277748,-1.1623391251278918,3.380302422113073,-4.453464034140897,3.9257462969903214,-13.583451229681003,-7.863422694019997,-8.622105899145568,-5.508115908392581,-5.764248741858376,-10.163598400204126,-11.591221918307465,-7.274234325581009,-8.376495117817516,-5.370675399691836,-6.780793396307151,-4.088284864307216,-6.38080606720748,-2.918036701058384,-5.87023695416967,-8.526908530897543,-6.282185376489848,-9.543969991887597,-7.611107514075447,-7.6777766338141795,-9.64753176307708,-7.369688978626914,-8.925891458398068,-6.850485891734013,-0.1448487989483193,-6.4722058690117565,-5.425391263975859,-4.798629437678271,P04,1
1740998138.969444,1740998139.964986,10.244323968887327,11.239866018295288,4.0,9.661951591059472,0,1.0,-6.622944460208483,-5.084306515901687,-6.50164321956697,-3.2860908083549525,-5.130769316104642,-7.478232883552421,-4.936461166520358,-5.075973175950368,-3.5266136419463527,-9.392804280612957,1.5731107213982842,-5.374789883900359,2.6236851392102416,-3.9611820920971614,8.030869718336453,11.739108479561596,5.9139487539540925,10.56737009256198,9.24228531937925,5.882469685293216,4.018427281033674,7.895527676048502,8.42876082525555,9.628576703249088,10.61452434642711,8.009302148081876,10.256793345071747,7.885895137518077,1.75260285636606,4.980398654896938,1.190082605654578,2.72725491460821,4.880024934540251,1.7517086051479622,-4.122343495316056,2.155162372324176,6.182599506033622,6.025131747227517,3.710041601254521,5.933393288138797,2.6783263049250703,4.352759993591119,-7.385789217876288,-2.8846916191859826,-6.743485484732905,-4.432152474421374,-2.886197667917805,-4.06498860998013,-7.33846127135696,-6.761432783512284,-4.904560851620808,-8.497013248508683,-0.0948151359620323,-0.8783690169224452,-2.7929147061872777,-0.2576931859853562,-9.789799146039996,-11.14845014103688,-8.214080981189895,-8.160724575181836,-9.129572095047816,-8.827810083041221,-9.753041240895016,-11.75278086368097,-7.306240281693221,-8.805892567963081,-3.471547272541502,-5.85925782622184,-6.137998515572038,-4.355675540155818,-7.032243162492504,-8.650019553274449,-7.4624118858780175,-8.484811097698417,-8.860728541022265,-10.529233321451043,-10.29353274377651,-5.652501417244982,-8.087475830892782,-7.917689344369677,-1.2890117762602356,-11.896942144798905,-6.659741133557267,-5.514261817676625,P04,1
1740998139.219306,1740998140.214848,10.49418592453003,11.489727973937988,4.0,9.377198509568515,0,1.0,-2.89848847220318,-3.559149315074364,-4.804899604173338,-2.333125999257482,-5.041002179360951,-6.877232671857215,-5.518822132348543,-3.34040279130042,-0.6584171190335968,-5.332396700934433,2.1594019509927955,-7.098546847289295,4.286939194670916,-1.426189445778709,8.353593078540172,12.766476794709634,7.235687237630341,11.334673866891867,9.512407127079092,5.296736853125968,-0.2189883251930114,3.953468748786552,8.686648873329617,10.737266034310656,11.041358881228408,6.909614027515163,11.24693483487672,7.473162453268783,1.9106473736134064,5.583328305974282,2.778676784082472,4.532031181272293,6.003327316408069,0.1376434129356106,-7.166447816932245,3.9534800056291,7.482880881281551,6.896824833902051,3.180742531514627,0.8746797341661593,2.6174654435783458,-5.200034360356877,-4.853911080627836,-4.7227626553917785,-2.0953704990843462,-6.265162109162386,-3.5830954771963066,-3.958876741782671,-6.832595651371954,-5.729265560385654,-8.523759482726579,-6.904076778409419,-0.4400411411980479,-3.726261840804249,0.4179398493759074,-5.86214497409733,-7.170819428298694,-11.49866494781075,-10.702397958875329,-9.40347635741248,-11.812931865902074,-6.680462564102843,-7.193311740580968,-8.551946247047402,-8.283524411006178,-8.899079468954055,-2.862876793372209,-10.492768895762003,-6.4106875430851975,-9.267154677867314,-7.197129656191489,-8.477664805658735,-6.387582913010833,-6.391939426633532,-10.871306108453211,-10.52384035795822,-9.387872064201003,-6.425742423989388,-6.331275069126507,-9.70433465820324,-1.4349787763424051,-9.77472174284866,-5.78150348706852,-6.43001464226086,P04,1
1742376057.293787,1742376058.289332,0.0,0.9955449104309082,2.0,8.424881086275686,0,,-1.4962635188910158,-5.775156408626668,-6.250382750767221,-11.964472988681722,-6.969990913262728,-6.443680249164948,-1.9741573081289447,-6.240606726049589,-0.8323436029857872,-4.89902252755331,-7.103161041243913,-1.299419899728274,-3.220509661540495,-4.05303331190672,1.484336192877609,-8.422200158558324,-1.373234217377647,-9.466818951004912,-3.7228448104085534,1.2749941491749723,2.690035487010877,-5.890996593848597,1.5603316298416503,-0.0886896717458308,-4.116007101670523,5.360381701269096,0.3875109294431555,3.119806471640473,-1.8865331355636843,-4.052205088008459,-3.4599880458101584,-2.37664272896109,-1.8231997646715428,-2.837141341825137,-5.226131666523052,-0.5767831849548576,1.4892516715814286,-0.9453261051663814,-2.6647653155605413,-7.991589462871929,-5.081634488847966,-1.079440041833951,-7.327108875212626,-7.153040717387872,-8.24058976414136,-4.360941296477905,-1.230752328420756,-1.5671426210340833,-10.72613263563292,-7.069030703755329,-3.0131935311237084,-8.607922230983394,1.402009453793446,-6.032416164288431,-4.776493977621684,-2.0691800563441283,-3.0608161939847696,-4.644530479106953,-7.030112006740197,-5.152419736065571,-2.179517174690827,1.7465879018283823,-6.648926115496052,-4.052881320706973,-0.463749323347649,-7.753825595712069,-3.0117997018384783,-2.141835342831446,-0.992871617565494,4.8744499594908905,-2.511290017200648,-2.689380270771598,-5.998212635761537,-1.7710459661559934,-4.122623346259429,-3.297885787017594,-8.139570629078763,-0.9350297368745526,0.2155501091768558,-5.793244780349256,-0.3551589493659259,-7.653975627836517,-2.3005598221348533,-1.8126849566256675,P05,1
1742376057.543649,1742376058.539194,0.2498619556427002,1.2454071044921875,2.0,7.966387946068443,0,,-5.535800832341603,-4.929233938304744,-13.162289359486376,-4.242176145882098,-9.67822109170016,-5.719858250098144,-2.5849639263854214,-2.156720738126664,-2.964030172421415,-4.591383505744367,-9.116978404594883,-2.678544613834392,-3.963608530864606,-1.4855417273262508,1.8931382834902253,-4.1878316301865866,-2.95900784849294,-8.979976670041163,-5.001539213315459,-1.083544417250646,0.4128689085655079,-0.8912243278419452,2.1382168416952614,-5.559777005888283,-0.0799305533284938,3.7887856869185614,-1.4034228193384195,2.0554251512590205,-1.8566491122409368,-3.0517231546305776,-3.4814424788611853,-3.844739239389949,-0.9086355906430856,-2.101064148979022,-3.488571200775381,-0.8092331148279082,2.4099314201342343,-7.247228463507035,-0.4364336878854779,-5.804595326048955,-2.314081374177652,-1.1631335123447224,-5.503551990513554,-10.712139072867943,-9.121705447772833,-3.487127914237812,-5.673101073835768,0.0816114149260438,-9.1762892086581,-5.400801804802868,-4.477218521565182,-8.663496284226717,1.3087287238130338,-4.535418500089024,-7.0584157440497854,-6.026441624736636,-6.577605081515228,-2.986220793010157,-6.409315285587321,-1.3485713063312592,-1.979980647434572,-0.0267994364699677,-6.375705241900888,-2.479940252373693,-0.1577172366980788,-5.9145528100525615,-2.2456084469095594,-7.589530799665982,-2.694866488713809,-2.056092674735291,-3.34987388701427,-6.326002301271757,-9.900028937279949,-2.8948295088799543,-3.439860300801005,-1.888067614806801,-9.00716895920681,-4.534699769056944,-2.207787532535057,-9.186084083711748,-7.1965213497405855,-11.459165684671117,-4.153795290939179,-6.027789054196305,P05,1
1742376057.793511,1742376058.789056,0.4997239112854004,1.4952690601348877,2.0,8.404143933673875,0,,-5.98455324036808,-4.351655723900407,-7.793731304055546,-3.103844854988906,-10.353173486758353,-8.83985162595739,-6.6171870719347945,-2.6921894640168103,-1.7262000676400198,-4.998542063972242,-12.292657246886169,0.9824396473628372,-9.34432822976189,-3.937136483630649,2.437661290706401,-1.396200744898426,0.3224298768235076,-7.605307774097411,-4.218086935385784,0.4072485126601977,1.827432810082685,2.144835339020413,2.118357940060693,-9.965472009405884,2.7572506177243303,0.4309554244073796,1.04666467269354,-2.156341950196424,0.6172188728625946,0.1616455367061007,0.1308846420480745,-1.1890625620629278,-2.23826162343806,-5.195327630862292,-2.747238776242818,0.9334553975077068,5.954403970944336,-3.8283469579496177,1.2644457739646944,-4.126034512219992,-4.207910121415772,0.3733805927505829,-1.6923533962398265,-8.227614554067417,-8.122330660791715,-4.78354087504636,-6.551786450129845,-0.5610673971125133,-5.718601971892775,-4.418772677098321,-1.5978836499792684,-4.517628936200159,1.066815254735256,-4.974176038116719,-9.015844353039371,-4.167932980406103,-5.694646721803423,-2.5339735440837914,-4.844345918567832,0.2092129869300987,-2.0650105733032227,-1.1881469096794102,-13.410956015917945,-1.867630137781965,1.7238149021371618,-3.964529255245259,1.1126898401108387,-9.364705371065988,-9.579335889456916,-4.861718188223744,-5.864869588279349,-11.890821732120928,-7.638062543968322,-5.294374243826706,-3.7900326889260336,-1.6568872184046255,-8.807888119254667,-4.18433921015075,-1.3193747104355182,-5.633084437258436,-5.526111488655095,-10.979675866902754,-5.756389965423255,-2.4021078007879773,P05,1
1742376058.043373,1742376059.038918,0.7495861053466797,1.745131015777588,2.0,8.82390309555981,0,,-4.04618194305815,-6.280251223743571,-0.7750821199363651,-7.73964572969883,-7.349299920947079,-17.612358242786733,-4.05433258091069,-5.4062453287564685,-4.016331226073369,-4.260397428695638,-6.924206821297379,-1.6243661498312598,-7.767778839817343,-3.9649386841724814,1.5698283830006337,0.7711894468123898,-0.6314379406838626,-3.84553327047894,-3.95115834979734,-1.8562746539549169,1.205041125013814,-0.3349403190427298,1.3861790983594608,-3.932210060431175,-1.104361481698654,-1.9518590131835405,2.714741085470324,-1.989388898869612,-2.403256628828506,-0.5250456343817231,-1.5693005300292189,-1.5931754654744632,-2.854882116523096,-4.049624694096687,-6.464411984809044,-0.7006788256999902,4.375818445122292,-2.998359029865067,-2.38198466389988,-1.6903558398311476,-3.6006424920788183,2.468582796252064,-5.398008902771253,-5.062845474653712,-4.977234506511853,-7.408088718837533,-0.0284258712954784,-2.888657718394157,-6.689026041369343,-3.136010285772992,3.2462519967847965,-5.4862180611146325,3.638344830422243,-7.730897860598908,-3.7934709351337617,1.7290639707983149,-1.2208789539097968,-6.480028519942378,-5.776639556246634,-1.8497251724128256,-2.262411906920224,-1.8651836999309184,-10.274017344290725,-0.0450817504642077,3.470433566687624,-5.452756623054127,1.1215560910835862,-5.886227131563368,-8.507461108001742,-0.1513663487074276,-10.120899001435998,-9.307861491042893,-8.324622856216774,-5.117696924293853,-0.4283361925635984,-3.861367331287413,-9.788761811984978,-1.6263672842648584,1.0030658785089246,-4.711712123849451,-0.1446041955781748,-9.482192457762547,-2.954157730563756,1.131156447924704,P05,1
1742376058.293236,1742376059.288781,0.9994490146636964,1.9949939250946045,2.0,8.824310333222963,0,1.0,0.9059415214266936,-8.245524702621188,-0.2404290548778113,-6.245931590545073,-1.7009579725081587,-6.97640715881046,-1.6113173729430548,-2.8991892054734176,0.3888040051690213,-1.4007208936548023,-6.441791925116732,1.6908213878355878,-6.458785436054569,0.8330928370710698,1.089139261161043,-0.1059126609152144,-2.8008697682975066,-3.4204329124751567,-1.773771486215033,-1.544439787749066,-3.1583004155768264,-8.758280467638762,-2.1990740581037675,3.0780637179293056,-2.78765250776716,1.0565522497974782,-1.2817663344781445,-1.1716918017374345,-2.12840711965477,-4.027229228908298,-6.931886227988152,-3.7562794056957416,-3.6991334915952905,-1.3642652283993693,-6.775522339312499,-0.6372623552658018,1.4554996725711282,0.2863867477332509,-2.3154405549249817,-2.907937553719455,-7.261577639866728,0.7395350254359924,-9.076491385323004,-3.8602567691560186,-5.567685540767675,-9.62203472913078,1.375861813020001,-6.217369880241296,-7.4116312077287745,-3.3122658924058515,1.796656115819438,-4.733913743958076,0.2204264337489457,-8.135790210128903,-3.151835461898705,2.247641099598125,0.3073358574516074,-5.188121146673575,-5.539318521539601,-1.1246945260054195,-0.96233982020654,-0.0710224213134125,-11.863443912322394,3.888758179552878,5.315725754638504,-0.9643027955967588,-1.064299044562407,-3.2364256293651787,-3.87776663890288,-0.3881432776939992,-7.770492421321786,-4.045304635885481,-8.451504866052614,-5.791106922540942,0.2914305469176082,-2.1959643290884183,-12.249201780066452,-2.3771264499013856,-1.4548893193099437,-2.99695850679005,1.1365857338989842,-6.745194927895158,-4.120627647950498,0.7463286024459039,P05,1
1742376058.543098,1742376059.538643,1.2493109703063965,2.2448558807373047,2.0,8.42942889149996,0,1.0,0.6606101067168507,-9.357640808799593,-8.954969166143949,-8.435589617560272,-1.054701478012176,-2.467759663266876,-3.8341886872599935,-2.28073894409015,-0.2448899350337125,-2.6183343965643164,-12.757721881639888,2.272741409796222,-5.33231145963731,2.782193751435233,2.2833794733912667,-2.0189911913904925,-4.207275023065879,-5.390156942146659,-4.821031283818757,0.0975587684546339,-0.0803421165436931,1.5395067588108444,-0.3741811552361168,5.144992264870718,-3.079848075294005,4.110765521469196,0.4276359306766506,0.9313926281879704,0.617117952909886,-2.936896010995753,-12.797752596503887,-3.071750809207739,-4.939616150455745,-1.094361248549211,-7.451181218513452,-0.4463739462294173,-0.1066788062685212,-0.6958350725582594,-2.085982425295447,-2.8717211250123964,-11.373007950348605,-1.4490149117690834,-7.1252077167595935,-7.303045938817741,-5.566866223816588,-4.576777675001952,1.4601042152610135,-7.042546278059687,-7.401669399970334,-5.787128816222486,-0.6011295854242004,-5.867893123143934,-2.3908315721036053,-4.600270201501408,-8.001093897064873,1.6439011939498815,-3.589305849981001,-5.735211270918217,-5.577601818369272,-1.7329798709730182,-0.4481197080170934,-5.17034100202732,-6.366122055210925,1.4484989305525868,2.9111314350424653,-3.114752857762925,-4.242625105008564,-6.289616643987643,-5.2584774151446645,-2.7899905648407,-4.718999316027983,-3.240824772223502,-6.286590473239181,-4.068486032546424,-3.827355764116136,-1.9758764750786413,-10.598622526443862,-1.185742590952362,0.1561781732106787,-2.8909996243028777,-1.899662486286733,-11.218397743106545,-3.881567142391036,1.2237983862973825,P05,1
1742376058.79296,1742376059.788505,1.499172925949097,2.494718074798584,2.0,8.326637949969776,0,1.0,-6.626638772598863,-12.466945783466858,-9.933629987809695,-17.87814021165469,-4.896381859108688,-4.58409834298495,-4.637832520390321,-4.560693971564933,-9.053874338013625,-3.854949310257135,-10.244611543957037,-2.0262022855958435,-6.079934596809899,-1.311041275190033,-1.4107521275688517,-3.5906281526361377,-5.493098165715643,-4.974574779783712,-4.982135967337799,-0.2511127774576994,0.3190835831417483,3.992723200016688,1.2535153984952994,-0.1386701765799837,-0.4047281871165207,4.117114608331515,0.8295226754182693,3.7937100484165103,-2.0866695430333264,-4.543529080953955,-10.630745447212288,-5.502552982036384,-4.05455002776388,-3.2477796744689496,-3.666234322731565,-0.280759162241257,-0.8465194769257951,-6.932402551980125,-3.155201749626953,-6.840694790505095,-8.279136281382925,-2.961670071719666,-2.8083110580341697,-5.087915322695226,-7.883569476182133,-3.491502836001107,1.6599429562850798,-1.988515578654908,-5.805885731149257,-5.809999618240232,0.1186464578233392,-11.772273606825776,0.9092308733519648,-2.5531102745800145,-10.30523935338329,0.0466949562978071,-7.036329086210785,-6.685774326672913,-6.463203199293448,-1.3522346928172508,-4.533725242914558,-1.4870133848007117,-6.365489918538625,-0.0676323468735129,2.4256928535462388,-3.652198609045509,-0.0334199273604009,-9.66947272828854,-5.467176594302423,-6.8152268691858175,-4.689153041632092,-5.377841330457951,-5.686752444131644,-5.060951280295351,-7.406985850389053,-0.6598839911903693,-10.322760759545256,0.0928781235152929,2.990133690044774,-3.843679966606608,-2.108641332778036,-11.6192610257996,-3.748455023620768,-0.6308310979119715,P05,1
1742376059.042822,1742376060.038367,1.7490348815917969,2.744580030441284,2.0,8.634497380458656,0,1.0,-5.452216288886977,-12.094735310859589,-5.816153073260049,-11.646400702376509,-6.254460104368762,-5.220632572069195,-9.188904656354188,-8.048339157166351,-8.8664734933358,-2.2606040387097286,-1.6669583743471952,-2.8593575897280004,-2.852258936756114,-2.47047100718667,-3.540601062073367,1.3811606949679034,-4.692841350221838,-0.2318778639929891,-0.1601685223723945,-0.8660372235206815,-5.816538071734176,2.7074141134883267,2.590493535841877,-2.327367925695352,1.684063403718293,4.345704498245365,-0.2142993496320504,5.628638619299718,-2.848131864144503,-3.06864032200203,-3.7197813911497417,-7.629731168880966,-3.076444080142479,-4.57908568144107,-3.180978896913939,3.001065882963288,3.541312000526914,-7.930290832798152,-1.172865340751328,-4.011612217284378,-2.4161060270232646,-0.7103819247592053,-1.4846948408551923,-5.98540851231726,-4.673248721961359,-6.182383505123298,-1.1779168264788709,-0.4761171791259081,-4.934965368899917,-6.1612344689009735,0.0321053748452665,-9.08626204569094,2.054755386513568,-1.3856227157335566,-8.99642260255521,0.5751193722248686,-5.443116887664545,-4.255743258566697,-8.086569197063344,-0.6720583392594155,-7.101988366517928,1.392601689880209,-11.15936105162326,-0.037051482677593,2.78638704582547,-2.675966915829122,0.6264358143403372,-6.559402769999496,-3.738514364712617,-3.854612137353936,-3.905084505562073,-8.017162443206141,-3.674363294945516,-4.797463997010935,-6.444307026106612,-0.8613902132902084,-8.671835308152389,-0.9014255316387422,1.2598633121723266,-4.40962292407756,-2.9347394921954306,-8.204205196915781,-6.556847209519062,-1.5504220944877205,P05,1
1742376059.292685,1742376060.28823,1.9988980293273928,2.994442939758301,2.0,8.793747847118938,0,1.0,-1.6195895242679716,-6.520891134606417,-3.0326763679864284,-6.657037901982604,-6.383265730474848,-2.051757226844766,-5.577820418381143,-4.743650468743364,-3.831768466020863,-2.268274638131131,-1.772630820324955,-2.475800119034461,-2.836648898448433,0.4860263880340115,-2.703142021547238,-0.4766595246827558,-10.009736520412506,0.7553211378151521,-1.2825892631717857,1.8350924310914327,-5.284106240881428,3.430464728482898,4.098411319802137,-2.784848624486237,-4.012574602994276,-2.0345806418721573,-0.8888523872379633,-0.1547988085278208,-0.7935446123867075,-1.3742072833591077,-7.05435565195555,-5.570754179184508,-3.837641786578744,-3.1234805351599446,-3.8045687787334455,0.433795772917219,3.4821325876780573,-9.870641468563743,-3.438598392750648,-6.768792417429742,-3.2492903686553327,-2.566067448648269,-2.623191120458997,-5.629078124050877,-5.233722816620146,-6.310140312924099,-7.423898709442088,-2.0641412795696183,-3.454214673853265,-2.297991367113452,4.22175491337737,-6.983744643606134,3.2317236095160853,-4.588151179097189,-2.585102669151764,-0.1397477032780403,-6.8289033818949285,-2.114542476931617,-7.658452963462794,-1.2575174865698222,-6.065454977826226,-0.0969804252577597,-10.447117937287382,-1.2230630138313534,1.339160603670193,-2.563613982496572,-0.681631854229465,-5.414294212330779,-4.6767293134428165,-1.8682774777079367,-4.031029735444995,-6.765334458971072,-5.276576820881101,-5.280403630560143,-4.501723786968907,0.1569721445692866,-9.357306511684882,-1.0249534945718042,1.541208566431027,-4.504027058684592,-4.471748292794246,-7.812192306980979,-4.609843785046406,-2.1528757959026725,P05,1
1742376059.542547,1742376060.538092,2.2487599849700928,3.244304895401001,2.0,9.331356685310183,0,1.0,-2.6608735858129524,-3.2280810038619627,-4.596473864341581,-3.948181354889666,-7.637169378259642,-0.5476290223419145,-3.047364041820757,-6.393280177954369,-5.055932874630632,-4.380093726870849,-7.061479489663423,-1.8080591769740728,-12.25131838153014,-0.2794755109233846,-5.329199484253195,-3.6084402677134593,-1.7676165471859977,-5.525791922776451,-6.2507093285294175,2.633027008395249,-2.7298421490517195,-1.6580767686352724,0.5214685286691377,-4.503139458623737,-8.159565954376253,-2.068671556282573,-2.2916397888096323,2.256337159983228,-4.537736693546696,-0.4984651404493123,-10.469615937622292,-3.931214066465185,-4.32193233526609,-2.1271876815882327,-5.480112708926532,-0.056092426841816,1.9857497298514883,-6.17182258822067,-5.433390321363936,-5.185553957201179,-4.209986637311868,-4.250620094637964,-4.643138071471538,-3.621477756427262,-9.341749248737562,-10.504226762588525,-2.4569447275444736,-3.526380983649325,-7.109128931661436,0.6716986556839568,2.695007468582502,-4.197499538194728,0.0942477320642902,-4.762868466426018,-3.55474458667325,-0.2023808507165027,-5.285036724660499,-4.906853029976896,-9.206956043114602,-3.1472998059727364,-4.669984905148363,-4.652377225918256,-10.073250419557986,0.2625961025047337,1.6374681860776283,-5.754153416049723,-0.4408794242367368,-7.042156317488057,-3.159144735527531,-0.2737577224650124,-2.633325456972036,-4.085647662858697,-7.33613447233834,-2.25499466933671,0.2125874366492722,0.8690225548663367,-11.669263544168132,-1.6075124296903434,3.758649802222439,-5.631469644381813,-0.2606193111758513,-7.280150978234631,-7.319861656433485,-2.3627393613136154,P05,1
1742376059.792409,1742376060.787954,2.498621940612793,3.4941670894622803,2.0,9.575809888322924,0,1.0,-2.4429173932118133,-1.8415572456023688,-9.215107340680996,-2.262328252150517,-5.857590685090621,-0.0858949838530637,-2.259552975871765,-3.438161346869143,-9.33770565958685,0.2704095296269068,-8.470305255829107,-4.354844412511236,-6.947346334466039,-2.2653319853669,-4.167010345070138,-2.9725322997101244,1.3016745105415608,-8.569134027634082,-6.938709531689838,-2.6963762021574675,-3.985931103918338,-3.2114428835506352,3.7915813063511337,-1.1965950828525695,-9.514074529081409,-2.4982515735046693,-2.3253916984002827,0.1691346830232683,-4.492728837275469,-1.4372910934429162,-6.911452329685566,-2.852238764301661,-3.532795024077597,-2.5319695135668057,-10.134809277447562,-1.7416066490546187,-0.1749900403326398,-3.039523255430572,-2.8833015299482216,-4.411003008547977,-1.55584010044983,-6.169154151564563,-0.7617966675257681,-5.414511173211036,-8.601809899895407,-4.973399398617299,-2.9042643685360563,-6.270794966959258,-7.376567549986452,-1.1632859278529617,0.8513287495808546,-2.6152657273742186,-0.703562983116171,-6.178615335999224,-6.540526305633039,-2.2019553929913616,-7.47706496103104,-6.166207588166975,-8.673814396172915,-1.8915447691590068,-3.52328290211217,-5.151175660904059,-10.89137943821084,-2.5363851495144867,1.50091320997375,-7.028046724507981,2.539518554162102,-6.707437146578941,-5.172951653357405,-2.310548714242786,-5.40092024444999,-5.922322544190215,-8.359206584722163,-2.450713157608428,-0.7141323926095886,-2.083770756531331,-7.822664263437705,-4.135195141240437,4.395747910027825,-6.349995837317461,1.0596852784379505,-9.485092933311032,-10.220187291578418,-6.491724459159749,P05,1
1742376060.042272,1742376061.037817,2.7484850883483887,3.744029998779297,2.0,10.156241176662943,0,1.0,-3.5217402617297733,-3.4142537474974706,-11.314591014454528,-3.632663564483036,-7.890760822653907,-2.836086837464997,-2.934579738053728,-3.961579667061361,-7.991239080408318,2.550870691676484,-8.493679261090318,-5.073777033060061,-4.847030281574814,-2.9776121892084846,1.982639071338264,2.13732356154626,-1.781139977005466,-4.260995960774153,-4.755896561225437,0.5607429439463315,0.3006651716571,2.2808224521091702,5.678972824657862,2.6922344761395465,-7.483804729085008,-2.560090646023698,1.3280250991756168,-2.339553398195294,-5.504650612455775,1.6541025226316228,-6.181871608654789,-1.6212576291460803,-0.3038005346490221,-6.061812052767626,-6.338497422130025,1.7560128300000186,2.074162162746988,-2.7647760127701275,-2.504342134728754,-2.1514034807983764,-2.9427384317969345,-3.458895220977643,0.882805410953456,-2.433853054494565,-6.5979420390147245,-4.681493840536325,-1.899056766906913,-1.6627645276565508,-4.91600216582408,1.9074473157746488,1.777120705512908,-2.564324966765425,3.707056598617564,-5.102060084980814,-0.121265891785577,-1.5202836954609624,-5.270289829064662,-5.225410344445727,-4.407199395019135,0.70495266090731,-1.306145808348266,-5.493897739598529,-10.434791520833896,-8.541569306620236,0.6129898079168427,-4.882590971833815,2.022854103001801,-6.923471974425789,-4.195860417197316,-0.7406512142742372,-7.523144452952836,-6.670622023368584,-3.5790739777066505,-3.845053025837755,1.3533071131370642,-3.433510228080772,-6.7457069240996255,-0.9656446011513564,5.248357110503336,-4.945489744221378,0.7202350390914556,-6.672113109094826,-5.384380591886608,-8.511727745489392,P05,1
1742376060.292134,1742376061.287679,2.998347043991089,3.993891954421997,2.0,10.431608076826718,0,1.0,0.1157267161245048,-3.143807172509064,-6.154241975722208,-2.252776447662289,-8.465255790778158,-8.489848218838123,-1.8848410059544567,-2.530655227312372,-1.865803347423579,2.5332015037365787,-6.613382110365783,-7.334685927201276,-8.619085882749179,-0.6761662409383639,-0.8827796448505537,5.387954751088589,-3.037951305405416,1.4649711399933163,3.046854735666356,-2.09469370005524,4.754401478919838,7.794058483138812,8.18929236832943,3.44228507160991,-2.191417547127847,1.0116031830382617,5.802971760812488,-2.371961196553077,-5.651164202426989,4.943150493499664,-6.098370510561933,2.0032041622060563,3.342773547791673,-6.445630139054512,-6.4540590042802926,4.073416625734176,4.578054286249671,-1.9772495544856616,1.7079359077830436,-1.6339014802710394,-2.1017512483264054,-6.27920425109127,-1.073733387206932,-2.4486504549687287,-7.695381206831763,-1.9925544566089368,1.957955022654061,0.7928660035968417,-7.053375291966143,4.674194559393884,4.296206651298378,0.4430004760521611,6.430127781926208,-4.135618806429845,0.6827644026552071,-2.3406914882825176,-4.756042093656223,-1.7993009502931898,-6.470618915962673,-2.422959812796034,2.0045542779886207,-5.653284065866288,-9.925668888114222,-4.1421193122352085,2.326605016192877,-5.957802238807818,3.874822350206762,-6.082958040832511,-1.591411502906569,0.1845777263398603,-5.966548327714552,-8.973472392532123,-1.4753348077897657,-7.389624200176092,1.034326456104384,-1.0061313182218865,-9.807477562900893,1.4418767315026348,3.965812616992298,-3.446209376497333,-3.79798325326325,-7.586162198914206,-4.157274454443317,-6.566268021195284,P05,1
1742376060.541996,1742376061.537541,3.248208999633789,4.243753910064697,4.0,9.845348606169376,0,1.0,-0.4875172366052848,-1.8000441200145842,-7.081764378829587,-5.527492981370493,-10.57142513053214,-8.621807635747574,-1.6661195277729832,-1.7078577573121767,-0.6510939817863779,-0.2559170640761807,-5.331696965154985,-2.672887084206887,-5.37025049640028,-0.8262852567903718,1.3566880463290194,4.068190103948354,-4.769589910046225,2.542148268612801,1.2812812780487213,-2.72775686728091,5.652398691041435,6.61138661866124,7.834471740329826,2.542447035574772,2.425837529928535,0.0913664037423634,6.154638977220495,-2.158451106064112,-3.4201113550516204,1.3177003548422856,-7.195845384877596,-0.6631515932685232,0.3122935114940333,-3.672892182335552,-9.218159122514605,0.4940577895008011,2.961980832990236,-5.357548169813371,1.6857327872690404,-3.1473078296125427,-1.213178785627635,-4.975150127869215,-3.075162392661088,-5.010347110887141,-9.59453221716617,-2.643320635164734,0.3670013630825813,-2.2437486678970755,-8.638528042554457,1.3831925968844918,4.006866475359607,-2.2169554479821576,4.093560192339784,-4.708018437353191,-1.7351230625625824,1.5984931351406333,-7.959867390284026,-2.803924843175789,-10.403587329961596,-5.042942029921075,-1.6057842537621725,-6.894614527191089,-7.694821496580947,-3.204976244513426,1.8462957538418945,-4.023521916421244,4.855329703749791,-6.589647685176015,-3.4059892956847806,-1.529709620805234,-3.849340889230116,-3.680404147785041,-5.814041064588498,-6.010860473141908,-4.387638609805741,-3.233844592972679,-8.173088199954586,0.1998760923926978,2.8651623702285374,-4.086526740773635,-5.295103637703886,-8.137156947189125,-4.010332457692692,-3.103798911015274,P05,1
1742376060.791858,1742376061.787403,3.4980709552764893,4.493616104125977,4.0,9.727297366594478,0,1.0,-3.899488841003008,-5.342016396788471,-5.796374281020507,-5.188162132773152,-7.4205251429969294,-6.4661801216703205,-1.8238699379257504,-4.759829588122971,-5.351292021215054,-3.4262628880346,-3.329777246501657,-2.058463157492528,-3.1925396097751864,-5.605761535131821,1.8762968810209264,2.8977881790835336,-3.3257856382631665,3.09152680233238,-2.4665905525921765,-3.3678986969446543,2.631133983539092,5.325587103297311,5.582104393776778,5.743301856766645,0.0440152426496254,-1.96682435217344,2.110983172412209,-2.619674521840693,-7.183708745569117,-2.723961170095566,-8.316573285698281,-3.09653045235504,-0.0746298435019179,-3.622397483749218,-4.800794991135475,-2.861781771951502,2.0458419847906515,-3.676305339134625,0.0069663730759324,-6.001976995405299,-0.7914495269716306,-1.540701612850404,-2.359287349186629,-4.914184942384699,-9.806856180988348,-5.8522468832228105,-5.505957039906112,-3.645696055508645,-8.989833783402945,-3.625852276813812,0.9040678545227516,-3.974896276435308,1.4641357491121287,-2.1933037535955777,-2.093175281233058,1.9297569162982344,-7.379517257764714,-5.472243591540586,-10.601131672444344,1.176969528138044,-4.737693052624374,-1.4167247848891609,-7.4674411508093534,-0.440147816654552,0.934542926671752,-2.5052039017226315,2.2682454029018864,-5.302674244387379,-3.717561430445329,-0.0800881855956394,-5.112469981489781,-2.4963278308665,-8.263079466521269,-3.436165298834823,-5.542948609362037,-1.1028459859670934,-7.355350015873552,-2.2414370579791782,2.2179317572981363,-7.573475336747322,-4.598499820737435,-6.11991498841877,-3.8348824994203423,0.3757840490592652,P05,1
1742376061.041721,1742376062.037266,3.747934103012085,4.743479013442993,4.0,8.784773900829977,0,1.0,-4.077437856778966,-7.196200377737346,-13.678022100777527,-2.2094535324690585,-3.6089425537004898,-7.141089179925934,-7.349692760135545,-7.384945879296067,-3.68719566083924,-7.677261665521136,-5.623044452895809,-6.666945858490539,-6.044787257569477,-10.31039763471063,-1.0619729892471534,4.540847137415092,-1.3461406875967372,3.1455363605407376,0.2868040514886472,-5.232455107282867,2.757058426866095,7.224809649793742,7.333950547992791,4.670130137395479,-1.0978202807499584,-0.3649864852628504,2.268387720410824,-2.1846952491348635,-6.155733977186944,-2.1157912355736115,-1.5512450947027725,-2.9115309357735626,5.224610054774876,-3.0869001846663497,-3.456280207649494,-1.7802430275715142,1.9735952071043608,-2.35295557245055,-0.816270318899903,-0.9796263288244976,-1.7102679019797828,1.965962538657688,-5.098631420183324,-6.898370972284805,-9.732812242204346,-8.207025145668606,-1.264715484880789,-5.719237320195977,-5.049707731199744,-5.984227229135037,-0.3309017540857198,-4.347203128791819,1.859257396641224,-2.182196360679087,-4.612230687727274,1.2611297814198683,-5.987006253475911,-2.1274215799240324,-8.780375744084438,2.4687854192629235,-0.3209506865524673,1.0728299694773946,-11.08091253028518,1.000126955630181,1.3984316883436994,-3.149890382647972,0.1847754996299412,-4.145734796682165,-6.591999069102608,0.4082820588594091,-5.301709028247046,-7.29553947565973,-7.136747797692183,-4.712404877757123,-3.171338904319174,0.4370421200490636,-8.613994400102396,-3.07858516116523,-0.2995092831659019,-5.847208038284746,-1.021801558626948,-5.317362089528405,-5.999814561304026,1.304952190280254,P05,1
1742376061.291583,1742376062.287128,3.997796058654785,4.993340969085693,4.0,9.152155500172434,0,1.0,-3.765664747714647,-5.562890324453003,-6.542816727767731,-4.204321083836521,-4.7404725162999455,-4.5720291424570565,-8.928624961909133,-7.547303838382826,-0.9578118109343808,-3.867441972609144,-3.0398087844545154,-5.572571855243722,-2.257108633487365,-10.251753190327896,-1.2212468250863335,1.4724444468173776,-0.9992588805142704,1.9787562812950232,-1.5311402014896824,-1.7218751902734022,0.3597780679850582,5.443959068872308,6.421208864074779,3.4519819150676807,2.850867431013482,-2.892949183461317,0.4123301234766219,-3.5289591530591173,-4.855888752468191,-1.7088846509410602,-2.1069293670565323,-2.94155873896148,1.5121605921522523,-2.1565564272633373,-6.904025800715028,-1.0429980274629571,3.876558047819433,-6.203096454439914,-0.1337812268205878,-1.6053728358364086,-3.91308098381232,0.2970538032015306,-8.69217202810933,-3.898853071841153,-10.929694864787036,-8.255999864382861,-0.1960522825695907,-4.2792684325029,-4.9386911957956645,-7.717114121297774,-3.071876480848628,-7.895237561026031,3.3502238486332776,-5.840593814492856,-5.513766305251313,-0.3966354396143919,-4.543060467214467,-1.0646174678888514,-5.039847128777245,-0.7035337493391896,2.6095358422920034,-0.6899217760112102,-8.86599080028377,0.2759982356658813,-0.148918463480859,-2.578822160867694,1.8992207498274,-5.76658892229162,-5.50518021883295,-5.607378538438819,-2.829226947133594,-4.995850635322482,-10.364005233181992,-4.446755262460005,-2.017486734558672,-0.1671392905090824,-10.11748802560188,-2.751085712094933,0.9793361963063746,-5.219726420251938,-0.9416753823919022,-5.754002230412959,-6.208042846170851,-1.224919262243645,P05,1
1742376061.541445,1742376062.53699,4.247658014297485,5.2432029247283936,4.0,9.938252311323769,0,1.0,-8.816863342180085,-4.200900179511584,-8.141934027987416,-1.441651235438569,-7.6889667329634435,-6.219452772553692,-6.913372069621548,-10.728834886692528,-3.348479475475436,-9.750398755920704,-1.4416241384462338,-1.368412844618486,-1.137119947542983,-6.951311060581483,0.1428021759988785,1.3478412395552508,-1.1390657573872671,1.6860574055991149,-0.5080658906113076,-0.3480212411156181,-8.49198627408027,2.554649735466308,6.4214315668074295,1.6256550483672796,-1.3366707406775251,3.707181715624648,-1.1632088261909508,-1.4615003808335243,-3.617890300333211,-2.247699139181824,-5.944480307172841,0.0927127994157709,-2.9372990222856643,-3.0575035589505632,-4.897620432403827,-1.6166685358360802,1.6610459724254236,-4.288691846538163,-2.4039694972108814,0.147898789135586,-6.073256240317613,-2.8471663715621083,-8.936606945741056,-3.7383108405219536,-10.747527442966824,-1.582082600369774,-2.135942004244218,-3.907754598717777,-3.727653709609596,-3.045337409544988,1.6564589153578158,-9.071254961995995,2.777456517475363,-6.637524182011117,-6.681058830892144,-1.5938864958786825,-4.106528133922915,-2.875430484224424,-3.81589695299227,-2.2439262846352586,-0.2281135547870356,-2.5230541084053044,-6.478520397465143,-0.451542178488712,-0.2758605623988769,-2.8416399196869446,1.5230923613824718,-4.841219784311391,-4.8552415387477765,-8.48113033363602,-3.235100263286305,-5.455945634325308,-7.384652858172751,-2.4404649054264884,-4.529995284523261,-2.3617267098492163,-6.074058657954216,-2.400547926842612,1.3874170055586998,-7.110851945510058,-2.062969028970969,-4.412826479520242,-4.957828047815039,-2.5438160610658893,P05,1
1742376061.791307,1742376062.786852,4.4975199699401855,5.493064880371094,4.0,10.370965064458494,0,1.0,-11.37154553686441,-6.791742363505713,-12.554734802340525,-3.217757938973877,-4.466649723333064,-2.939931511404534,-5.122951677205357,-12.923384724613308,-6.421666037726265,-10.051800450678565,-4.454157672952077,-4.820142051014945,3.0011647162006563,-4.070042910346925,0.2540281981087324,3.139891318137277,-1.0714090248326456,0.7815362102797417,0.3562015848775663,1.3004221027005634,-4.292064273195448,1.7826420273382095,7.190173418538585,3.007926652645283,-0.3416723729937155,5.521820954840935,1.6212132402901391,0.979159074037228,-3.972405487726807,0.9306342617669208,-7.510645936360659,-1.8282538634267715,-2.6214985590588213,-2.898874851326893,-4.6853224704614815,3.2843186626258096,5.0530114884411335,-0.679043022548189,-3.426387235429936,-1.281105514205647,-0.5457210559999153,-2.638468304053185,-6.046794378414784,-0.569530621503871,-10.128840004838516,0.8503070537048779,-0.1646708694768414,-1.1022877731422354,-2.525103514071934,0.7679244664660896,4.193826311452502,-2.172559843286605,3.605428764807751,-5.491248997847187,-5.56531201918899,-2.455013720891113,-8.482964149080104,-5.351224104251431,-7.00377519741269,-3.29120752704245,-5.417064610307047,-0.7663954506791912,-7.99150927134742,-3.813365379362445,0.8862327372611569,-6.390182637074591,-2.711449715533045,-5.3788662792974495,-2.097707320963808,-3.6678225147671912,-3.92550507199982,-4.260269913333657,-6.819996941687588,-5.570023675369105,-2.8570937941025925,-1.1599303512927557,-7.989015635366891,0.0100973621915443,2.2506993114696523,-6.999993750442101,-4.531403947224267,-2.7978865535824093,-5.869348669215734,-0.1762994486768745,P05,1
1742376062.04117,1742376063.036715,4.747382879257202,5.7429280281066895,4.0,10.557230554204624,0,1.0,-9.609117599096242,-1.6585287542885954,-10.015418688813629,-7.943187582685722,-1.4248096036500713,-0.7180835423637822,-1.2500231269977538,-6.731585091219754,-1.7981290871138855,-6.060681200170256,-5.541665592517839,-7.625130398672919,4.3583904933313296,-1.7344251779301143,-1.0547012357375805,2.5438700016613143,-6.378508153899391,1.2602355445763265,-1.082301134704039,0.262633428072378,-6.213035162289218,0.0863457424150767,5.298597463329631,1.2600086787684877,-4.178212764818836,-1.2626559432493865,-0.7981556543385794,-3.041772947283412,-2.9096364922998625,2.901931361136259,-6.505576570916745,-0.9121934251646552,-0.2167047731722313,-3.984518749064497,0.528096458614835,3.457311185947312,3.2484413271183343,-1.4027350920762376,-2.939829198487111,-2.3076574202095705,0.7955480022609931,-4.210939884394001,-6.948311216902178,-0.1892920242846934,-7.783655710146955,-1.24240144730615,-0.8865746347255398,-1.3603171239235263,-5.329547300651619,0.6582792556382353,4.676660442494248,-3.1982267275027016,0.4304024570970742,-5.930515355812672,-5.731768992765525,0.8750331312235892,-7.182676209440428,-2.170687019578039,-7.797529761592839,-4.1073749248223095,-0.6336226077527205,-1.9901819528643032,-6.5476886213690975,-1.4721966211784392,2.197090765830612,-5.775625417710144,-2.3645966624916874,-7.037924057719653,-2.8581226072315493,2.076125721709051,-5.7042079375145525,-2.764526788769964,-9.721875781743956,-0.9189586946997246,-0.4301168496871969,-0.0247651210985424,-10.785123092106812,-0.4312382649879775,5.322895524636554,-3.83535745976741,-1.861639086579584,-6.036424143547089,-5.441625407790011,-1.460645896481084,P05,1
1742376062.291032,1742376063.286577,4.9972450733184814,5.99278998374939,4.0,10.40001720264208,0,1.0,-4.133075404740865,-0.5276950506971763,-8.827240328664436,-7.528056025445659,-6.253818301528157,-6.740875429612217,-2.025893948064581,-5.028261626696805,-2.34058252904751,2.626127363769773,-5.238363836162975,-8.067403180271253,2.250264515863302,-3.69107097553912,-0.9885447834861264,3.1335649170689472,-4.077895522162373,1.1515115424363915,3.629556518021278,-5.315267832091849,-3.983631477658618,1.2997368342188986,7.699511757178923,-2.7537392277513706,-6.126975017774868,-8.768728925086604,-4.653651777321313,-8.047336733439794,-1.6990053401946112,-0.1956627619656865,-7.457853626555284,-3.1751904113415086,-1.3853931808094069,-0.8159343973182847,0.4781089252531303,-3.627803275437742,0.4970639983233209,-3.1465373106031267,-6.349852929832781,-4.911625573186113,0.808863422894132,-0.5135876640559244,-7.05677269854318,-0.5398733744496746,-11.097604165303494,-3.778670008538645,-2.580183932818398,-1.238172840354555,-11.13327530538595,-1.8961047871471708,2.170876355612429,-8.440059707021472,-4.410668188168331,-5.48190082785999,-3.974263928892941,0.1850137916565494,-3.9350548620074632,-3.2428663207868387,-9.492866045469436,-1.4928860922878149,-0.1914778350623688,-1.7625549566595256,-5.914461997424593,-3.5171386921484906,0.0815072376245697,-8.153215089173152,2.639743181902289,-6.435625992013296,-3.964569929925284,1.333773265623153,-7.944539174905608,-2.0053218205681898,-8.591351952025041,0.9376584399503096,-0.2013565443738794,0.6909674757176021,-8.525458632572672,0.2007737731379869,5.4876770454358965,-3.475743856912215,3.971648193402142,-7.583243389984745,-3.289487309443766,-1.4052214227426372,P05,1
1742376062.540894,1742376063.536439,5.247107028961182,6.24265193939209,4.0,9.856173157555055,0,1.0,-2.461264951440332,-5.689394148847863,-9.216160611611029,-6.248454846851134,-5.410058007833014,-10.991466808662896,-5.485675500038832,-10.703427097482416,-10.339362115265743,3.756483352016169,-6.634805749046113,-6.376852281664384,-1.92410225720458,-7.286855227138556,-3.101068713547228,-0.0956174828927422,-1.2223262251295757,-1.1378795475829402,2.482051845588737,-2.9639345269193567,-1.1290293803364055,-0.2425883990627148,5.87498921048218,-1.960891678274873,-5.429446602029593,-5.7261567666897095,-4.949255127302229,-4.325825521077379,-5.659941721125121,-3.96835172375121,-8.803156393874179,-0.9063455863000016,-5.8263762061359525,-0.4944048007500918,-3.711998591279112,-7.230398871671722,1.6041075456617837,-2.4761901433666207,-10.694103997334228,-3.1860821567528634,-1.3322542287203047,-0.7457703901993417,-3.1831093803336987,-3.976236841708496,-7.158016233842436,-4.079765683515507,0.7187648061435071,-2.732495330692025,-9.198442233813264,-2.305515316553814,2.169624984913177,-5.809243076688277,-2.8518684630252054,-7.085495732949122,-6.112789607935795,-0.2058222777848702,-2.752980114310184,-3.537734933370977,-6.803321173635544,-0.539999540396945,-0.9293662813220668,-0.4571267721115008,-8.705010901139831,-2.689766906551721,1.9756458719076069,-8.724302279031779,1.1866110056478905,-5.858948288190772,-3.7440632046281728,-3.202608257257045,-4.621072492321375,-2.0505660372692973,-3.881468658321581,-0.5006895234498046,-2.3674857316050044,-4.127617769183821,-7.153373113048778,1.1447374864803694,4.40751239110009,-3.9781903295311793,2.210515060375145,-3.0856034187846726,-3.931210811910462,-1.9919235514201736,P05,1
1742376062.790757,1742376063.786301,5.496969938278198,6.49251389503479,4.0,9.332308051389733,0,1.0,-5.767837519601162,-4.986911701958033,-9.515676026215536,-8.894226073144923,-5.784404444922476,-6.266003265124704,-7.769889730095634,-8.394817585641723,-12.90568151558254,-4.952629973160707,-2.6222517713602453,-4.1959358459679725,-7.118628283879778,-5.499799454259655,-3.4643431902765283,-0.8571028984692696,-4.248879701213549,-2.1226886544420323,-6.733462756582982,2.382470634225606,-3.739733912994356,-0.1608603556573147,0.9080309554815372,-1.406966148839281,-2.0155916158056875,-3.0987908272690765,-4.762494495709577,0.3576269066396706,-12.521029272158511,-5.344326451661638,-8.839120626567986,-2.1002060574466537,-6.554471378258453,-4.1536280801820205,-2.3153013155087905,-9.928240824488537,-0.429392666652303,-5.30218496733688,-9.809754548600925,-4.5143919656912335,-6.915964975809321,-3.300196981842971,-2.9968327875150065,-6.8732907262260685,-4.038905406326926,-2.9736325510924013,0.3437254525944495,-3.765000613877867,-7.009822176149002,-1.9116720217738177,2.1728894647070134,-5.048464113174664,-2.129006547591056,-6.2633104941656095,-10.86365840529625,-1.302013360727864,-2.443843439720907,-4.866204729404725,-8.493126574641954,-3.966913657797911,-1.2314174219760323,-1.7296029855168509,-14.269531279899237,-3.790523854217448,5.035914604866125,-12.215171712778936,-3.40002484896928,-4.995559606789563,-5.515119816185273,-1.8916772867097933,-6.033747259992101,-0.8732666059542367,-3.791904535765267,-2.643940868327136,-1.2075395151497756,-4.744776338832414,-5.938768426221124,2.1851507021502483,3.0099157691933365,-3.721639778327944,-1.2984869899311111,-3.142321370477178,-4.519820902938755,-3.582012539505706,P05,1
1742376063.040619,1742376064.036164,5.746831893920898,6.742377042770386,4.0,9.696328049097149,0,1.0,-6.167466668491324,-3.2216676873288783,-8.402639100016838,-8.011842799382114,-7.584916883412065,-3.7646338874524776,-7.225553854121937,-9.43438641160913,-8.187748847743661,-9.987502781866034,2.662309370951812,-6.47823174852907,-5.149659282064029,-4.7396243042840505,-8.655012134095587,1.1976125386260723,-0.5114742958597045,-1.4984601015335497,-5.441749070969271,0.8369701705516199,-7.308530378243995,0.6061681432171955,1.5253712128034371,-4.027264599072579,0.5424280101156334,-0.0858501969669053,-2.8021129486519114,0.9377022394414044,-9.668841656178724,-6.2407322518186445,-6.663020412632883,-5.696419535746712,-3.767750032679675,-7.026835972486763,-3.614877958701485,-3.783861747812261,1.0402282929648397,-4.946898397866021,-5.896361306818441,-4.4454642578394665,-5.622683998040163,-3.2895592906690023,-4.841510668570173,-5.684489325649147,-5.911340505475586,-2.2376226381096824,-1.7171986444320837,-1.6642840815998028,-8.64790975846942,-0.709988357738348,3.994596504496272,-4.08211887239456,0.1119150255347982,-5.1083236772127,-11.903687024659382,-1.2641273835891431,-2.210337922356524,-4.574280755346702,-7.01805656449226,-6.231826841317084,0.5410153208026615,-2.436393872041819,-13.126065734711004,-1.8703278282927944,5.102653689648797,-9.366015712579417,-0.997619550809199,-5.216751735616956,-5.871864349182461,-1.204504893105922,-10.547731516598017,-1.323864888914599,-5.76153478811754,-3.227147168574633,-2.8235946218825707,-2.011099703401076,-8.293938451403394,-0.9913920787315044,0.8129035562361632,-6.529190671867146,-0.8309332139598252,-3.7424632634439705,-7.31976806363363,-5.689530611599915,P05,1
1742376063.290481,1742376064.286026,5.996694087982178,6.992238998413086,4.0,9.535658502708516,0,1.0,-4.701559569047851,-5.84015034027192,-7.412704988673997,-5.716482456634504,-10.062656379368246,-4.501572842818,-7.681096320769976,-9.993814051455267,-9.011931433378887,-7.88874220905228,-0.949177256171206,-6.544859311707985,-10.220510660079285,-2.2790714350228094,-1.4001637049045073,-1.4264438157544983,1.901283805647764,-2.511767857686838,-5.354436639607966,-0.3471995112826037,-4.1410583630830295,1.7577307129210076,4.76641804631364,-0.904906797254249,-0.5998233507102342,-1.6989635900669455,-2.9011409756431834,-0.2360019412737841,-5.001923762331754,-0.6126114982882626,-3.588637851309116,-3.099169700330392,2.4072987928575635,-8.488855846712731,-4.656415419386045,1.4501235909397407,4.420977620567777,-2.7103942993443986,-4.854275407771577,-0.3346217874432856,-8.565011163719873,-6.435594168354756,-4.475428847938716,-2.326970522223562,-6.582947351227645,-0.6143214579251489,-6.255115231116618,-2.16799381374274,-7.872638744359422,1.3947099257962867,4.475739252338277,-6.025935525113559,-0.8409535286197318,-6.27419172590952,-7.562842942047846,-3.0031664116139085,-2.7629292774800955,-4.669675906482476,-5.346806434460287,-0.6111194468595424,0.0461156516557782,-1.0001289800510964,-6.556093405973699,0.6639632008881348,1.316649339935333,-7.29858551302587,-0.3790408924076784,-6.53593656731678,-6.087530593855572,-2.3999358772180392,-8.71932633179733,-3.870202372508498,-9.260780913820184,-1.3013991787097945,-2.6504016436559152,-0.5853535358209928,-10.183812611601205,-2.982377812012931,2.1070708786813817,-7.675902657126511,-1.7590664734556316,-4.715534243669109,-7.809217322330033,-1.8956451124126945,P05,1
1742376063.540343,1742376064.535888,6.246556043624878,7.242100954055786,4.0,9.73954072504612,0,1.0,-9.617280693244506,-6.827339894894537,-8.052955559921298,-8.062524699252844,-11.98626149973112,-1.2696267792894576,-2.490891312018365,-4.3966380353588255,-4.304820071139592,-7.499609018911042,-3.891807139320519,-4.159502901169035,-0.7303087321232169,2.026267166656793,0.0824628288979986,-0.8849147176716683,-1.0433160257197422,-2.479956614390189,-4.728128878627079,0.2192128392862047,3.094620942298907,1.6964608356628463,4.573379942279521,0.5178360631272203,-4.059795536488599,1.2074977810981038,-2.425227353746946,-1.9627426769782512,-2.433902309927654,-0.5832555376038101,-3.747883474646151,-1.0579923903072164,0.8313702579605018,-1.9891829766166245,-7.769932152930715,-2.149326283339019,3.1071403010720493,-3.877085553388361,-1.4001687267973155,0.519811143982706,-11.608229276561175,-4.0679637617931474,-4.885038800303349,-2.4297953690146388,-7.1143017483971125,-2.2614892816077456,-4.388299418172853,-0.8428570796407108,-6.060434068077525,1.3241515036639706,3.6047645202326537,-5.519035747177545,0.3751634597674125,-9.653601406607336,-3.075474582784086,-3.493811150878965,-3.636400988818487,-4.628569298703877,-3.028128247717952,-2.6765552792255383,-3.30437655338302,-0.9141010762108072,-4.746823168538664,0.0440828340017519,1.7127885555834197,-5.812081904368536,0.6260285356246299,-4.572457337170758,-6.03936213538577,-2.774221589765104,-3.959186520752025,-3.372030035188228,-4.665625789931905,-2.630423386775098,-2.9986423882276103,1.1106790311777188,-10.002389580270002,1.3476808799739883,3.808671212809888,-3.459273953211878,-3.397113071820418,-6.524241354453105,-1.5874587141583565,1.258768370818674,P05,1
